%OpenBCI Raw EEG Data
%
%Sample Rate = 250.0 Hz
%First Column = SampleIndex
%Last Column = Timestamp 
%Other Columns = EEG data in microvolts followed by Accel Data (in G) interleaved with Aux Data
0, 187500,00, 121255,21, 98814,51, 101972,41, 97692,07, 132295,44, 148358,42, 98714,38, 0,110, 0,986, 0,058, 22:33:25.518
1, 187500,00, 121068,24, 98642,72, 101772,77, 97519,48, 132346,42, 148601,61, 98547,36, 0,000, 0,000, 0,000, 22:33:25.519
2, 187500,00, 121210,40, 98798,13, 101867,89, 97679,66, 132228,69, 148789,61, 98710,73, 0,000, 0,000, 0,000, 22:33:25.520
3, 187500,00, 121498,96, 99082,62, 102138,59, 97968,43, 132104,53, 148661,14, 98993,37, 0,000, 0,000, 0,000, 22:33:25.520
4, 187500,00, 121524,28, 99085,15, 102201,59, 97966,62, 132148,38, 148393,66, 98998,31, 0,000, 0,000, 0,000, 22:33:25.521
5, 187500,00, 121227,01, 98777,01, 101940,47, 97652,71, 132293,56, 148352,45, 98693,81, 0,000, 0,000, 0,000, 22:33:25.521
6, 187500,00, 120980,42, 98550,65, 101687,56, 97419,67, 132341,75, 148591,95, 98452,57, 0,000, 0,000, 0,000, 22:33:25.521
7, 187500,00, 121110,53, 98701,03, 101767,80, 97577,23, 132224,27, 148784,06, 98601,03, 0,104, 0,980, 0,052, 22:33:25.522
8, 187500,00, 121455,11, 99035,75, 102089,69, 97915,70, 132101,70, 148661,53, 98945,65, 0,000, 0,000, 0,000, 22:33:25.522
9, 187500,00, 121492,70, 99049,36, 102162,04, 97925,91, 132143,36, 148394,59, 98966,66, 0,000, 0,000, 0,000, 22:33:25.523
10, 187500,00, 121218,49, 98775,73, 101934,70, 97645,02, 132289,02, 148351,56, 98677,38, 0,000, 0,000, 0,000, 22:33:25.523
11, 187500,00, 121048,05, 98619,23, 101742,88, 97488,29, 132342,39, 148592,47, 98503,09, 0,000, 0,000, 0,000, 22:33:25.524
12, 187500,00, 121185,56, 98771,20, 101835,46, 97643,28, 132226,95, 148784,92, 98658,77, 0,000, 0,000, 0,000, 22:33:25.524
13, 187500,00, 121411,97, 98990,59, 102050,64, 97862,80, 132098,83, 148662,19, 98891,36, 0,000, 0,000, 0,000, 22:33:25.525
14, 187500,00, 121423,19, 98984,20, 102090,72, 97857,07, 132137,05, 148392,84, 98890,98, 0,000, 0,000, 0,000, 22:33:25.525
15, 187500,00, 121235,21, 98798,38, 101944,16, 97664,65, 132283,72, 148347,88, 98697,88, 0,000, 0,000, 0,000, 22:33:25.526
16, 187500,00, 121051,70, 98627,60, 101756,65, 97490,86, 132340,78, 148589,77, 98527,27, 0,000, 0,000, 0,000, 22:33:25.526
17, 187500,00, 121165,72, 98752,15, 101820,64, 97625,58, 132229,36, 148786,73, 98661,98, 0,104, 0,980, 0,046, 22:33:25.527
18, 187500,00, 121419,66, 99006,52, 102062,29, 97884,84, 132102,89, 148668,48, 98919,97, 0,000, 0,000, 0,000, 22:33:25.527
19, 187500,00, 121486,29, 99059,48, 102159,83, 97930,45, 132140,38, 148402,13, 98967,84, 0,000, 0,000, 0,000, 22:33:25.528
20, 187500,00, 121268,94, 98836,08, 101980,70, 97700,14, 132285,73, 148354,42, 98739,84, 0,000, 0,000, 0,000, 22:33:25.528
21, 187500,00, 121050,80, 98629,15, 101754,05, 97495,94, 132343,20, 148594,13, 98523,98, 0,000, 0,000, 0,000, 22:33:25.529
22, 187500,00, 121168,16, 98761,72, 101821,24, 97635,12, 132232,80, 148791,80, 98655,45, 0,000, 0,000, 0,000, 22:33:25.529
23, 187500,00, 121391,56, 98977,59, 102030,75, 97850,86, 132103,03, 148673,81, 98877,25, 0,000, 0,000, 0,000, 22:33:25.530
24, 187500,00, 121414,80, 98983,24, 102083,12, 97854,23, 132136,38, 148405,28, 98887,18, 0,000, 0,000, 0,000, 22:33:25.530
25, 187500,00, 121197,95, 98758,68, 101908,08, 97629,42, 132279,92, 148354,48, 98659,93, 0,000, 0,000, 0,000, 22:33:25.531
26, 187500,00, 121018,29, 98593,67, 101720,22, 97463,35, 132337,45, 148592,52, 98478,27, 0,000, 0,000, 0,000, 22:33:25.531
27, 187500,00, 121142,72, 98734,76, 101804,84, 97612,14, 132229,66, 148794,34, 98625,48, 0,110, 0,986, 0,044, 22:33:25.532
28, 187500,00, 121432,84, 99019,72, 102074,52, 97900,88, 132099,08, 148681,41, 98916,95, 0,000, 0,000, 0,000, 22:33:25.532
29, 187500,00, 121479,11, 99045,78, 102151,34, 97919,91, 132131,50, 148410,30, 98945,49, 0,000, 0,000, 0,000, 22:33:25.533
30, 187500,00, 121204,30, 98766,01, 101922,86, 97637,63, 132274,28, 148353,53, 98682,52, 0,000, 0,000, 0,000, 22:33:25.533
31, 187500,00, 120997,52, 98572,51, 101702,47, 97446,25, 132334,48, 148591,02, 98483,15, 0,000, 0,000, 0,000, 22:33:25.534
32, 187500,00, 121177,81, 98767,02, 101828,77, 97645,70, 132230,03, 148797,80, 98678,01, 0,000, 0,000, 0,000, 22:33:25.534
33, 187500,00, 121472,85, 99055,57, 102110,66, 97936,73, 132101,44, 148690,27, 98989,68, 0,000, 0,000, 0,000, 22:33:25.535
34, 187500,00, 121500,01, 99068,27, 102174,80, 97947,48, 132129,42, 148420,50, 98996,34, 0,000, 0,000, 0,000, 22:33:25.535
35, 187500,00, 121233,87, 98793,79, 101949,84, 97671,66, 132271,52, 148357,98, 98705,05, 0,000, 0,000, 0,000, 22:33:25.535
36, 187500,00, 121033,38, 98601,95, 101733,24, 97483,45, 132332,31, 148589,00, 98508,13, 0,000, 0,000, 0,000, 22:33:25.536
37, 187500,00, 121207,09, 98787,76, 101853,72, 97677,84, 132225,39, 148796,20, 98691,24, 0,114, 0,986, 0,040, 22:33:25.536
38, 187500,00, 121505,73, 99078,15, 102132,18, 97971,67, 132093,06, 148689,75, 98999,02, 0,000, 0,000, 0,000, 22:33:25.537
39, 187500,00, 121510,78, 99072,38, 102184,17, 97959,53, 132117,38, 148419,17, 98998,40, 0,000, 0,000, 0,000, 22:33:25.537
40, 187500,00, 121186,77, 98744,39, 101912,09, 97629,60, 132258,98, 148354,84, 98662,50, 0,000, 0,000, 0,000, 22:33:25.538
41, 187500,00, 120960,02, 98519,73, 101662,77, 97411,56, 132323,13, 148586,33, 98429,13, 0,000, 0,000, 0,000, 22:33:25.538
42, 187500,00, 121112,77, 98685,85, 101760,23, 97577,23, 132219,95, 148796,83, 98588,91, 0,000, 0,000, 0,000, 22:33:25.539
43, 187500,00, 121455,55, 99035,26, 102086,74, 97928,66, 132089,70, 148697,98, 98954,19, 0,000, 0,000, 0,000, 22:33:25.539
44, 187500,00, 121510,47, 99072,56, 102189,45, 97958,10, 132112,97, 148428,39, 98998,33, 0,000, 0,000, 0,000, 22:33:25.540
45, 187500,00, 121262,59, 98816,37, 101977,69, 97694,87, 132255,53, 148363,23, 98726,78, 0,000, 0,000, 0,000, 22:33:25.540
46, 187500,00, 121070,74, 98635,83, 101776,38, 97514,16, 132322,08, 148595,36, 98533,59, 0,000, 0,000, 0,000, 22:33:25.540
47, 187500,00, 121161,74, 98744,05, 101825,00, 97631,99, 132217,84, 148804,59, 98653,58, 0,130, 0,982, 0,040, 22:33:25.541
48, 187500,00, 121421,73, 99000,86, 102064,90, 97893,46, 132081,70, 148703,42, 98916,01, 0,000, 0,000, 0,000, 22:33:25.541
49, 187500,00, 121514,16, 99075,06, 102190,88, 97962,40, 132102,00, 148429,59, 99003,88, 0,000, 0,000, 0,000, 22:33:25.542
50, 187500,00, 121243,59, 98796,43, 101969,46, 97673,97, 132242,13, 148356,56, 98716,61, 0,000, 0,000, 0,000, 22:33:25.542
51, 187500,00, 121059,99, 98626,11, 101767,65, 97502,73, 132310,81, 148585,11, 98536,99, 0,000, 0,000, 0,000, 22:33:25.543
52, 187500,00, 121239,44, 98817,48, 101896,55, 97700,99, 132210,00, 148799,31, 98707,55, 0,000, 0,000, 0,000, 22:33:25.543
53, 187500,00, 121492,37, 99062,05, 102124,98, 97949,88, 132074,16, 148699,59, 98958,45, 0,000, 0,000, 0,000, 22:33:25.545
54, 187500,00, 121586,04, 99146,48, 102250,71, 98026,84, 132095,78, 148425,70, 99071,96, 0,000, 0,000, 0,000, 22:33:25.545
55, 187500,00, 121317,22, 98873,90, 102031,24, 97749,95, 132239,05, 148351,77, 98783,91, 0,000, 0,000, 0,000, 22:33:25.546
56, 187500,00, 121100,67, 98667,59, 101806,41, 97546,67, 132311,92, 148580,05, 98582,74, 0,000, 0,000, 0,000, 22:33:25.546
57, 187500,00, 121199,24, 98782,59, 101864,52, 97667,27, 132212,48, 148796,08, 98707,27, 0,130, 0,986, 0,038, 22:33:25.547
58, 187500,00, 121428,22, 99005,88, 102071,90, 97890,63, 132075,16, 148698,50, 98917,44, 0,000, 0,000, 0,000, 22:33:25.547
59, 187500,00, 121439,91, 98999,74, 102115,98, 97880,05, 132091,72, 148419,92, 98905,59, 0,000, 0,000, 0,000, 22:33:25.548
60, 187500,00, 121214,55, 98763,10, 101921,00, 97637,60, 132233,83, 148338,55, 98675,08, 0,000, 0,000, 0,000, 22:33:25.548
61, 187500,00, 121049,98, 98614,73, 101753,92, 97488,56, 132308,75, 148562,83, 98526,58, 0,000, 0,000, 0,000, 22:33:25.549
62, 187500,00, 121134,20, 98712,77, 101795,63, 97596,90, 132211,41, 148778,25, 98625,33, 0,000, 0,000, 0,000, 22:33:25.549
63, 187500,00, 121422,95, 99004,86, 102059,96, 97891,98, 132075,53, 148685,98, 98913,98, 0,000, 0,000, 0,000, 22:33:25.549
64, 187500,00, 121467,06, 99038,25, 102144,61, 97914,25, 132091,00, 148413,55, 98940,10, 0,000, 0,000, 0,000, 22:33:25.550
65, 187500,00, 121192,92, 98758,34, 101916,17, 97628,48, 132230,64, 148331,95, 98657,98, 0,000, 0,000, 0,000, 22:33:25.550
66, 187500,00, 120993,59, 98568,13, 101707,79, 97441,42, 132304,36, 148552,66, 98465,11, 0,000, 0,000, 0,000, 22:33:25.551
67, 187500,00, 121151,86, 98735,32, 101808,93, 97614,45, 132207,50, 148770,17, 98635,56, 0,130, 0,986, 0,038, 22:33:25.552
68, 187500,00, 121426,83, 99005,71, 102065,05, 97889,93, 132067,16, 148678,72, 98904,41, 0,000, 0,000, 0,000, 22:33:25.553
69, 187500,00, 121429,60, 98993,73, 102107,86, 97875,00, 132071,61, 148398,50, 98869,20, 0,000, 0,000, 0,000, 22:33:25.553
70, 187500,00, 121172,73, 98730,06, 101890,65, 97610,34, 132206,19, 148309,98, 98615,24, 0,000, 0,000, 0,000, 22:33:25.553
71, 187500,00, 120976,33, 98545,59, 101691,25, 97420,19, 132280,77, 148530,11, 98461,40, 0,000, 0,000, 0,000, 22:33:25.554
72, 187500,00, 121080,11, 98660,71, 101742,92, 97536,39, 132185,23, 148749,02, 98575,13, 0,000, 0,000, 0,000, 22:33:25.554
73, 187500,00, 121377,21, 98958,16, 102014,16, 97841,25, 132048,53, 148660,89, 98876,09, 0,000, 0,000, 0,000, 22:33:25.555
74, 187500,00, 121482,55, 99039,08, 102148,05, 97915,88, 132062,66, 148384,80, 98954,74, 0,000, 0,000, 0,000, 22:33:25.555
75, 187500,00, 121254,09, 98786,17, 101951,69, 97656,34, 132203,33, 148295,69, 98696,16, 0,000, 0,000, 0,000, 22:33:25.556
76, 187500,00, 121010,75, 98565,67, 101714,98, 97439,19, 132278,69, 148512,70, 98471,92, 0,000, 0,000, 0,000, 22:33:25.556
77, 187500,00, 121084,80, 98675,20, 101758,64, 97556,06, 132184,61, 148734,53, 98573,96, 0,132, 0,986, 0,034, 22:33:25.557
78, 187500,00, 121359,53, 98947,34, 102003,32, 97828,35, 132046,14, 148649,05, 98854,52, 0,000, 0,000, 0,000, 22:33:25.557
79, 187500,00, 121399,34, 98961,83, 102069,86, 97839,75, 132056,52, 148372,86, 98874,08, 0,000, 0,000, 0,000, 22:33:25.558
80, 187500,00, 121120,66, 98689,05, 101847,04, 97562,97, 132197,63, 148281,67, 98594,39, 0,000, 0,000, 0,000, 22:33:25.558
81, 187500,00, 120872,98, 98464,41, 101595,52, 97340,01, 132274,84, 148495,89, 98360,26, 0,000, 0,000, 0,000, 22:33:25.559
82, 187500,00, 121015,63, 98625,86, 101691,47, 97509,80, 132182,25, 148721,64, 98526,46, 0,000, 0,000, 0,000, 22:33:25.559
83, 187500,00, 121350,66, 98956,27, 101994,20, 97842,95, 132043,11, 148640,33, 98870,79, 0,000, 0,000, 0,000, 22:33:25.559
84, 187500,00, 121449,90, 99030,80, 102129,70, 97913,78, 132053,23, 148364,23, 98939,01, 0,000, 0,000, 0,000, 22:33:25.560
85, 187500,00, 121186,41, 98755,28, 101906,16, 97632,10, 132194,41, 148267,88, 98659,03, 0,000, 0,000, 0,000, 22:33:25.560
86, 187500,00, 120974,30, 98551,74, 101685,81, 97428,50, 132273,81, 148481,36, 98455,03, 0,000, 0,000, 0,000, 22:33:25.561
87, 187500,00, 121064,58, 98653,66, 101731,19, 97543,55, 132181,78, 148707,78, 98564,64, 0,134, 0,984, 0,032, 22:33:25.561
88, 187500,00, 121323,21, 98910,66, 101961,97, 97802,31, 132041,20, 148627,27, 98820,99, 0,000, 0,000, 0,000, 22:33:25.562
89, 187500,00, 121347,48, 98918,98, 102023,28, 97805,30, 132045,67, 148348,19, 98832,59, 0,000, 0,000, 0,000, 22:33:25.562
90, 187500,00, 121113,93, 98677,00, 101824,77, 97556,94, 132181,38, 148250,41, 98589,88, 0,000, 0,000, 0,000, 22:33:25.563
91, 187500,00, 120920,99, 98502,16, 101635,63, 97384,83, 132259,02, 148462,16, 98412,07, 0,000, 0,000, 0,000, 22:33:25.563
92, 187500,00, 121023,70, 98626,51, 101694,64, 97512,39, 132164,61, 148687,84, 98534,48, 0,000, 0,000, 0,000, 22:33:25.564
93, 187500,00, 121343,33, 98941,29, 101981,71, 97828,06, 132023,41, 148613,08, 98859,20, 0,000, 0,000, 0,000, 22:33:25.564
94, 187500,00, 121387,54, 98963,20, 102065,05, 97850,37, 132028,70, 148336,56, 98881,23, 0,000, 0,000, 0,000, 22:33:25.565
95, 187500,00, 121136,13, 98699,96, 101853,63, 97583,87, 132168,20, 148235,20, 98613,48, 0,000, 0,000, 0,000, 22:33:25.565
96, 187500,00, 120897,09, 98471,41, 101609,40, 97355,55, 132250,70, 148444,61, 98371,95, 0,000, 0,000, 0,000, 22:33:25.565
97, 187500,00, 120971,91, 98558,83, 101627,43, 97448,62, 132158,70, 148671,48, 98452,79, 0,136, 0,988, 0,036, 22:33:25.566
98, 187500,00, 121290,71, 98875,28, 101920,98, 97764,18, 132018,63, 148599,17, 98788,31, 0,000, 0,000, 0,000, 22:33:25.566
99, 187500,00, 121345,27, 98913,69, 102017,59, 97800,75, 132023,61, 148322,97, 98848,02, 0,000, 0,000, 0,000, 22:33:25.567
100, 187500,00, 121141,58, 98710,42, 101856,16, 97592,54, 132163,02, 148219,23, 98642,58, 0,000, 0,000, 0,000, 22:33:25.567
101, 187500,00, 120858,36, 98439,56, 101586,46, 97317,50, 132242,84, 148423,52, 98358,98, 0,000, 0,000, 0,000, 22:33:25.568
102, 187500,00, 120942,78, 98540,99, 101608,86, 97422,87, 132151,22, 148651,50, 98450,65, 0,000, 0,000, 0,000, 22:33:25.568
103, 187500,00, 121220,86, 98811,18, 101859,09, 97698,47, 132010,36, 148583,38, 98723,05, 0,000, 0,000, 0,000, 22:33:25.569
104, 187500,00, 121301,33, 98868,27, 101960,23, 97754,26, 132016,19, 148310,34, 98775,13, 0,000, 0,000, 0,000, 22:33:25.569
105, 187500,00, 121090,59, 98654,74, 101793,33, 97536,10, 132157,95, 148207,66, 98553,51, 0,000, 0,000, 0,000, 22:33:25.570
106, 187500,00, 120872,55, 98459,56, 101578,66, 97333,44, 132239,02, 148413,66, 98354,60, 0,000, 0,000, 0,000, 22:33:25.570
107, 187500,00, 120969,38, 98569,80, 101626,78, 97447,61, 132145,61, 148643,09, 98467,03, 0,000, 0,000, 0,000, 22:33:25.571
108, 187500,00, 121238,48, 98837,53, 101871,76, 97716,41, 132000,80, 148574,03, 98735,90, 0,130, 0,992, 0,036, 22:33:25.571
109, 187500,00, 121292,07, 98882,44, 101961,63, 97757,05, 132000,61, 148296,28, 98798,71, 0,000, 0,000, 0,000, 22:33:25.572
110, 187500,00, 121052,77, 98629,82, 101770,26, 97497,73, 132136,31, 148185,09, 98551,84, 0,000, 0,000, 0,000, 22:33:25.572
111, 187500,00, 120741,30, 98323,11, 101455,84, 97192,20, 132213,92, 148384,52, 98243,80, 0,000, 0,000, 0,000, 22:33:25.572
112, 187500,00, 120842,42, 98440,09, 101502,84, 97314,33, 132121,47, 148617,19, 98357,26, 0,000, 0,000, 0,000, 22:33:25.573
113, 187500,00, 121161,23, 98755,68, 101796,91, 97635,19, 131977,30, 148554,56, 98673,27, 0,000, 0,000, 0,000, 22:33:25.573
114, 187500,00, 121234,34, 98821,30, 101910,05, 97698,71, 131977,55, 148279,77, 98733,09, 0,000, 0,000, 0,000, 22:33:25.574
115, 187500,00, 121036,37, 98612,95, 101754,95, 97482,05, 132115,28, 148169,03, 98516,47, 0,000, 0,000, 0,000, 22:33:25.574
116, 187500,00, 120770,00, 98359,01, 101489,52, 97227,29, 132197,06, 148366,16, 98259,36, 0,000, 0,000, 0,000, 22:33:25.576
117, 187500,00, 120850,02, 98459,45, 101528,84, 97336,97, 132107,98, 148598,27, 98369,87, 0,000, 0,000, 0,000, 22:33:25.577
118, 187500,00, 121096,63, 98701,19, 101759,60, 97581,50, 131960,02, 148533,95, 98617,48, 0,128, 0,986, 0,038, 22:33:25.579
119, 187500,00, 121110,20, 98698,77, 101806,83, 97571,44, 131955,38, 148254,53, 98605,01, 0,000, 0,000, 0,000, 22:33:25.580
120, 187500,00, 120890,27, 98472,62, 101626,54, 97337,44, 132094,22, 148138,80, 98366,45, 0,000, 0,000, 0,000, 22:33:25.998
121, 187500,00, 120684,17, 98273,76, 101413,80, 97141,52, 132175,78, 148335,64, 98174,87, 0,000, 0,000, 0,000, 22:33:25.999
122, 187500,00, 120804,94, 98411,77, 101491,42, 97288,40, 132088,28, 148572,00, 98340,48, 0,000, 0,000, 0,000, 22:33:26.000
123, 187500,00, 121115,34, 98716,90, 101776,27, 97598,06, 131944,02, 148515,56, 98651,39, 0,000, 0,000, 0,000, 22:33:26.000
124, 187500,00, 121224,59, 98804,56, 101914,88, 97683,31, 131940,75, 148243,27, 98730,06, 0,000, 0,000, 0,000, 22:33:26.000
125, 187500,00, 121015,00, 98595,73, 101752,36, 97457,34, 132079,38, 148128,98, 98487,44, 0,000, 0,000, 0,000, 22:33:26.001
126, 187500,00, 120833,48, 98426,95, 101563,40, 97285,02, 132165,56, 148326,84, 98306,03, 0,000, 0,000, 0,000, 22:33:26.001
127, 187500,00, 120884,84, 98492,96, 101578,04, 97357,38, 132076,77, 148562,98, 98391,44, 0,000, 0,000, 0,000, 22:33:26.001
128, 187500,00, 121153,67, 98757,36, 101812,86, 97623,54, 131930,97, 148509,14, 98681,90, 0,118, 0,986, 0,048, 22:33:26.002
129, 187500,00, 121229,80, 98818,42, 101924,53, 97679,31, 131925,16, 148237,22, 98744,10, 0,000, 0,000, 0,000, 22:33:26.002
130, 187500,00, 120979,23, 98563,77, 101718,78, 97417,33, 132059,67, 148120,27, 98477,16, 0,000, 0,000, 0,000, 22:33:26.003
131, 187500,00, 120764,48, 98354,53, 101500,09, 97210,93, 132144,94, 148317,66, 98257,46, 0,000, 0,000, 0,000, 22:33:26.003
132, 187500,00, 120819,91, 98422,91, 101513,22, 97285,31, 132057,31, 148555,28, 98326,62, 0,000, 0,000, 0,000, 22:33:26.004
133, 187500,00, 121071,13, 98682,86, 101744,34, 97544,33, 131911,28, 148505,13, 98578,90, 0,000, 0,000, 0,000, 22:33:26.005
134, 187500,00, 121150,54, 98747,50, 101852,83, 97611,98, 131905,38, 148237,09, 98649,89, 0,000, 0,000, 0,000, 22:33:26.005
135, 187500,00, 120896,87, 98487,10, 101652,78, 97347,56, 132041,77, 148120,64, 98386,59, 0,000, 0,000, 0,000, 22:33:26.006
136, 187500,00, 120663,50, 98266,96, 101414,35, 97124,27, 132129,67, 148316,72, 98151,47, 0,000, 0,000, 0,000, 22:33:26.006
137, 187500,00, 120746,17, 98363,79, 101447,70, 97225,26, 132045,73, 148558,55, 98255,07, 0,000, 0,000, 0,000, 22:33:26.007
138, 187500,00, 120978,37, 98594,57, 101660,47, 97463,66, 131898,78, 148510,59, 98507,69, 0,110, 0,980, 0,054, 22:33:26.007
139, 187500,00, 121046,09, 98640,23, 101754,37, 97515,09, 131893,64, 148242,89, 98560,73, 0,000, 0,000, 0,000, 22:33:26.008
140, 187500,00, 120812,38, 98407,71, 101563,24, 97268,20, 132030,47, 148121,39, 98310,13, 0,000, 0,000, 0,000, 22:33:26.008
141, 187500,00, 120576,84, 98183,56, 101322,33, 97042,46, 132119,80, 148311,59, 98070,87, 0,000, 0,000, 0,000, 22:33:26.008
142, 187500,00, 120704,35, 98326,35, 101399,22, 97191,70, 132040,83, 148556,64, 98213,30, 0,000, 0,000, 0,000, 22:33:26.009
143, 187500,00, 121031,16, 98650,90, 101695,27, 97519,30, 131897,97, 148520,75, 98547,02, 0,000, 0,000, 0,000, 22:33:26.009
144, 187500,00, 121165,54, 98766,39, 101860,43, 97629,02, 131897,17, 148259,31, 98648,05, 0,000, 0,000, 0,000, 22:33:26.010
145, 187500,00, 120903,48, 98504,78, 101654,91, 97360,33, 132040,25, 148140,56, 98384,20, 0,000, 0,000, 0,000, 22:33:26.011
146, 187500,00, 120715,06, 98324,90, 101457,90, 97182,01, 132135,66, 148334,19, 98211,80, 0,000, 0,000, 0,000, 22:33:26.011
147, 187500,00, 120804,49, 98419,24, 101501,50, 97276,98, 132056,84, 148580,56, 98299,19, 0,000, 0,000, 0,000, 22:33:26.012
148, 187500,00, 121040,91, 98661,91, 101711,03, 97517,02, 131909,67, 148540,23, 98528,48, 0,100, 0,974, 0,062, 22:33:26.013
149, 187500,00, 121156,87, 98763,62, 101854,37, 97617,62, 131903,36, 148278,47, 98654,47, 0,000, 0,000, 0,000, 22:33:26.013
150, 187500,00, 120919,76, 98510,41, 101663,17, 97361,38, 132041,88, 148156,86, 98419,80, 0,000, 0,000, 0,000, 22:33:26.014
151, 187500,00, 120640,83, 98249,39, 101399,18, 97100,45, 132134,13, 148348,30, 98142,75, 0,000, 0,000, 0,000, 22:33:26.014
152, 187500,00, 120749,51, 98392,29, 101462,68, 97247,36, 132056,66, 148599,13, 98274,45, 0,000, 0,000, 0,000, 22:33:26.014
153, 187500,00, 121099,94, 98740,46, 101784,03, 97597,86, 131915,75, 148570,91, 98627,52, 0,000, 0,000, 0,000, 22:33:26.015
154, 187500,00, 121264,42, 98884,92, 101971,25, 97736,11, 131914,00, 148312,72, 98774,30, 0,000, 0,000, 0,000, 22:33:26.015
155, 187500,00, 121052,17, 98661,80, 101804,62, 97507,05, 132056,88, 148190,11, 98533,30, 0,000, 0,000, 0,000, 22:33:26.016
156, 187500,00, 120790,90, 98403,64, 101543,84, 97248,75, 132154,39, 148379,61, 98279,97, 0,000, 0,000, 0,000, 22:33:26.016
157, 187500,00, 120847,63, 98476,28, 101551,03, 97326,17, 132080,45, 148630,78, 98357,91, 0,000, 0,000, 0,000, 22:33:26.017
158, 187500,00, 121147,19, 98780,11, 101818,20, 97634,85, 131940,05, 148602,95, 98658,67, 0,098, 0,974, 0,072, 22:33:26.017
159, 187500,00, 121276,78, 98891,76, 101975,98, 97744,53, 131936,38, 148343,67, 98768,80, 0,000, 0,000, 0,000, 22:33:26.017
160, 187500,00, 121049,18, 98650,36, 101794,55, 97502,04, 132079,61, 148218,30, 98531,02, 0,000, 0,000, 0,000, 22:33:26.018
161, 187500,00, 120905,50, 98515,11, 101637,65, 97362,88, 132181,81, 148410,34, 98386,14, 0,000, 0,000, 0,000, 22:33:26.018
162, 187500,00, 120953,22, 98580,60, 101649,02, 97435,03, 132110,00, 148662,63, 98453,44, 0,000, 0,000, 0,000, 22:33:26.019
163, 187500,00, 121214,69, 98849,27, 101884,08, 97706,53, 131969,88, 148634,31, 98722,17, 0,000, 0,000, 0,000, 22:33:26.019
164, 187500,00, 121317,09, 98938,41, 102015,88, 97791,20, 131962,22, 148374,23, 98808,50, 0,000, 0,000, 0,000, 22:33:26.020
165, 187500,00, 121152,28, 98762,37, 101896,21, 97613,40, 132103,19, 148246,27, 98638,70, 0,000, 0,000, 0,000, 22:33:26.020
166, 187500,00, 120889,16, 98512,56, 101640,84, 97358,77, 132202,27, 148431,97, 98384,51, 0,000, 0,000, 0,000, 22:33:26.021
167, 187500,00, 121003,20, 98641,20, 101700,57, 97492,45, 132133,34, 148688,34, 98506,26, 0,000, 0,000, 0,000, 22:33:26.021
168, 187500,00, 121291,06, 98927,61, 101967,52, 97783,34, 131995,86, 148668,73, 98790,05, 0,094, 0,968, 0,070, 22:33:26.022
169, 187500,00, 121350,81, 98970,30, 102054,33, 97824,22, 131986,17, 148408,47, 98821,10, 0,000, 0,000, 0,000, 22:33:26.022
170, 187500,00, 121188,34, 98798,40, 101928,98, 97648,40, 132124,98, 148275,03, 98646,96, 0,000, 0,000, 0,000, 22:33:26.023
171, 187500,00, 121016,85, 98636,77, 101760,42, 97488,31, 132226,66, 148457,47, 98505,95, 0,000, 0,000, 0,000, 22:33:26.023
172, 187500,00, 121049,20, 98682,13, 101754,70, 97541,24, 132155,31, 148710,02, 98583,33, 0,000, 0,000, 0,000, 22:33:26.023
173, 187500,00, 121281,19, 98913,75, 101960,07, 97777,28, 132011,05, 148685,78, 98812,43, 0,000, 0,000, 0,000, 22:33:26.024
174, 187500,00, 121402,71, 99018,29, 102104,46, 97874,28, 132000,33, 148422,91, 98895,00, 0,000, 0,000, 0,000, 22:33:26.024
175, 187500,00, 121206,87, 98813,33, 101953,43, 97661,95, 132139,13, 148285,77, 98690,81, 0,000, 0,000, 0,000, 22:33:26.025
176, 187500,00, 121024,66, 98636,59, 101771,29, 97489,43, 132242,59, 148465,22, 98517,63, 0,000, 0,000, 0,000, 22:33:26.025
177, 187500,00, 121069,65, 98697,79, 101771,89, 97555,84, 132172,88, 148718,78, 98573,56, 0,000, 0,000, 0,000, 22:33:26.026
178, 187500,00, 121311,95, 98935,37, 101982,49, 97796,43, 132029,38, 148698,42, 98818,60, 0,096, 0,972, 0,068, 22:33:26.026
179, 187500,00, 121432,24, 99037,54, 102122,45, 97899,03, 132015,23, 148436,88, 98928,66, 0,000, 0,000, 0,000, 22:33:26.027
180, 187500,00, 121262,52, 98860,06, 101996,23, 97718,54, 132149,97, 148295,53, 98745,65, 0,000, 0,000, 0,000, 22:33:26.027
181, 187500,00, 121012,16, 98620,52, 101759,33, 97472,22, 132249,33, 148468,42, 98492,55, 0,000, 0,000, 0,000, 22:33:26.028
182, 187500,00, 121026,16, 98658,49, 101733,00, 97516,86, 132178,38, 148717,84, 98534,78, 0,000, 0,000, 0,000, 22:33:26.028
183, 187500,00, 121283,45, 98920,30, 101961,63, 97779,49, 132033,19, 148697,75, 98795,04, 0,000, 0,000, 0,000, 22:33:26.029
184, 187500,00, 121437,11, 99048,11, 102130,26, 97903,79, 132019,80, 148436,20, 98928,17, 0,000, 0,000, 0,000, 22:33:26.029
185, 187500,00, 121256,82, 98853,88, 101992,23, 97704,86, 132153,28, 148289,64, 98726,11, 0,000, 0,000, 0,000, 22:33:26.030
186, 187500,00, 121041,89, 98642,58, 101779,98, 97494,04, 132252,88, 148458,56, 98501,97, 0,000, 0,000, 0,000, 22:33:26.030
187, 187500,00, 121066,70, 98682,61, 101759,62, 97542,96, 132182,89, 148711,47, 98568,59, 0,000, 0,000, 0,000, 22:33:26.031
188, 187500,00, 121333,60, 98962,41, 102000,39, 97818,12, 132036,88, 148695,63, 98833,02, 0,090, 0,974, 0,070, 22:33:26.031
189, 187500,00, 121439,66, 99049,05, 102126,75, 97901,58, 132018,77, 148435,06, 98915,85, 0,000, 0,000, 0,000, 22:33:26.032
190, 187500,00, 121249,56, 98851,10, 101983,92, 97694,58, 132153,92, 148290,23, 98734,55, 0,000, 0,000, 0,000, 22:33:26.032
191, 187500,00, 120983,87, 98591,82, 101724,30, 97436,17, 132257,64, 148461,11, 98475,37, 0,000, 0,000, 0,000, 22:33:26.033
192, 187500,00, 121095,60, 98718,13, 101780,09, 97568,63, 132196,84, 148721,50, 98592,87, 0,000, 0,000, 0,000, 22:33:26.033
193, 187500,00, 121426,59, 99048,47, 102083,43, 97902,29, 132059,09, 148714,89, 98924,88, 0,000, 0,000, 0,000, 22:33:26.034
194, 187500,00, 121532,63, 99133,36, 102216,27, 97985,04, 132042,69, 148455,31, 99006,80, 0,000, 0,000, 0,000, 22:33:26.034
195, 187500,00, 121343,82, 98933,82, 102073,17, 97781,68, 132175,72, 148304,80, 98798,09, 0,000, 0,000, 0,000, 22:33:26.034
196, 187500,00, 121135,88, 98734,38, 101866,48, 97580,65, 132279,70, 148472,27, 98591,75, 0,000, 0,000, 0,000, 22:33:26.035
197, 187500,00, 121215,14, 98830,07, 101909,31, 97680,67, 132221,03, 148732,39, 98691,04, 0,000, 0,000, 0,000, 22:33:26.035
198, 187500,00, 121441,25, 99059,59, 102112,69, 97913,27, 132079,67, 148726,36, 98936,48, 0,096, 0,978, 0,072, 22:33:26.036
199, 187500,00, 121518,59, 99123,32, 102211,44, 97980,86, 132060,38, 148469,77, 99013,95, 0,000, 0,000, 0,000, 22:33:26.036
200, 187500,00, 121284,12, 98880,78, 102024,24, 97733,49, 132194,11, 148316,73, 98764,15, 0,000, 0,000, 0,000, 22:33:26.037
201, 187500,00, 121060,55, 98668,62, 101800,21, 97518,49, 132298,05, 148479,64, 98533,86, 0,000, 0,000, 0,000, 22:33:26.037
202, 187500,00, 121159,15, 98779,17, 101850,95, 97633,51, 132238,13, 148739,70, 98639,98, 0,000, 0,000, 0,000, 22:33:26.037
203, 187500,00, 121443,20, 99059,33, 102100,15, 97912,13, 132098,98, 148735,45, 98937,60, 0,000, 0,000, 0,000, 22:33:26.038
204, 187500,00, 121578,71, 99173,81, 102259,92, 98025,18, 132080,20, 148477,14, 99068,43, 0,000, 0,000, 0,000, 22:33:26.038
205, 187500,00, 121365,85, 98953,38, 102100,75, 97801,41, 132213,53, 148324,36, 98823,27, 0,000, 0,000, 0,000, 22:33:26.039
206, 187500,00, 121080,89, 98675,86, 101820,66, 97522,76, 132319,78, 148485,45, 98532,84, 0,000, 0,000, 0,000, 22:33:26.039
207, 187500,00, 121108,20, 98717,88, 101802,98, 97571,28, 132262,06, 148746,88, 98588,87, 0,000, 0,000, 0,000, 22:33:26.040
208, 187500,00, 121398,47, 99013,38, 102057,81, 97873,95, 132122,30, 148749,36, 98893,70, 0,094, 0,978, 0,062, 22:33:26.040
209, 187500,00, 121513,94, 99124,51, 102205,05, 97975,25, 132101,13, 148493,20, 99006,29, 0,000, 0,000, 0,000, 22:33:26.041
210, 187500,00, 121322,91, 98915,61, 102052,98, 97759,46, 132234,09, 148336,03, 98814,71, 0,000, 0,000, 0,000, 22:33:26.041
211, 187500,00, 121129,66, 98727,67, 101856,85, 97570,44, 132343,00, 148497,75, 98618,58, 0,000, 0,000, 0,000, 22:33:26.042
212, 187500,00, 121186,15, 98803,00, 101873,16, 97653,98, 132287,14, 148760,75, 98683,64, 0,000, 0,000, 0,000, 22:33:26.042
213, 187500,00, 121492,41, 99106,24, 102140,34, 97965,73, 132146,81, 148766,59, 98985,30, 0,000, 0,000, 0,000, 22:33:26.042
214, 187500,00, 121672,30, 99269,16, 102341,10, 98124,34, 132125,45, 148514,91, 99147,10, 0,000, 0,000, 0,000, 22:33:26.043
215, 187500,00, 121501,04, 99091,63, 102219,20, 97937,48, 132259,67, 148357,78, 98957,07, 0,000, 0,000, 0,000, 22:33:26.043
216, 187500,00, 121269,34, 98870,68, 101999,95, 97716,26, 132373,27, 148517,64, 98741,94, 0,000, 0,000, 0,000, 22:33:26.044
217, 187500,00, 121265,05, 98893,52, 101964,20, 97740,15, 132319,48, 148779,20, 98769,70, 0,000, 0,000, 0,000, 22:33:26.044
218, 187500,00, 121545,05, 99172,88, 102202,05, 98027,10, 132176,95, 148785,30, 99048,65, 0,090, 0,982, 0,058, 22:33:26.045
219, 187500,00, 121622,30, 99231,62, 102306,34, 98082,38, 132147,55, 148530,67, 99096,21, 0,000, 0,000, 0,000, 22:33:26.045
220, 187500,00, 121471,18, 99069,70, 102193,05, 97919,21, 132276,44, 148370,78, 98932,02, 0,000, 0,000, 0,000, 22:33:26.046
221, 187500,00, 121229,13, 98835,19, 101959,67, 97676,72, 132387,28, 148528,25, 98701,63, 0,000, 0,000, 0,000, 22:33:26.047
222, 187500,00, 121273,43, 98894,73, 101952,07, 97741,34, 132334,84, 148791,72, 98761,70, 0,000, 0,000, 0,000, 22:33:26.047
223, 187393,23, 121609,16, 99236,13, 102250,71, 98088,02, 132195,25, 148802,58, 99096,81, 0,000, 0,000, 0,000, 22:33:26.048
224, 187307,20, 121738,21, 99342,03, 102410,13, 98193,69, 132169,86, 148551,91, 99219,70, 0,000, 0,000, 0,000, 22:33:26.048
225, 187413,61, 121553,88, 99148,18, 102267,52, 97993,09, 132298,81, 148388,59, 99018,36, 0,000, 0,000, 0,000, 22:33:26.049
226, 187481,89, 121365,07, 98966,86, 102080,73, 97809,20, 132411,66, 148543,34, 98820,86, 0,000, 0,000, 0,000, 22:33:26.049
227, 187273,28, 121353,98, 98957,30, 102026,12, 97805,80, 132358,67, 148805,39, 98813,08, 0,000, 0,000, 0,000, 22:33:26.050
228, 186957,97, 121625,70, 99232,42, 102265,46, 98085,93, 132214,86, 148815,77, 99115,63, 0,094, 0,982, 0,058, 22:33:26.050
229, 186840,58, 121785,29, 99394,60, 102463,70, 98250,64, 132188,25, 148565,22, 99286,42, 0,000, 0,000, 0,000, 22:33:26.051
230, 186948,73, 121631,17, 99225,18, 102354,06, 98072,88, 132319,50, 148400,16, 99096,01, 0,000, 0,000, 0,000, 22:33:26.052
231, 187003,72, 121330,47, 98927,99, 102062,98, 97772,63, 132432,00, 148546,41, 98794,57, 0,000, 0,000, 0,000, 22:33:26.053
232, 186819,19, 121291,16, 98910,78, 101982,78, 97763,02, 132381,36, 148810,20, 98796,30, 0,000, 0,000, 0,000, 22:33:26.053
233, 186571,34, 121563,63, 99189,28, 102210,95, 98045,01, 132240,05, 148826,67, 99071,89, 0,000, 0,000, 0,000, 22:33:26.054
234, 186524,31, 121727,02, 99334,57, 102393,12, 98190,45, 132209,69, 148577,11, 99211,92, 0,000, 0,000, 0,000, 22:33:26.055
235, 186681,63, 121550,55, 99145,96, 102263,61, 97993,46, 132335,00, 148406,59, 99005,15, 0,000, 0,000, 0,000, 22:33:26.055
236, 186739,13, 121294,95, 98891,40, 102014,99, 97740,71, 132445,13, 148550,73, 98754,70, 0,000, 0,000, 0,000, 22:33:26.056
237, 186542,02, 121261,05, 98881,45, 101950,52, 97731,70, 132392,95, 148814,28, 98767,20, 0,000, 0,000, 0,000, 22:33:26.056
238, 186234,58, 121551,93, 99178,80, 102201,96, 98031,91, 132249,86, 148834,70, 99061,61, 0,000, 0,000, 0,000, 22:33:26.057
239, 186124,83, 121758,40, 99366,45, 102433,33, 98222,95, 132219,89, 148590,08, 99248,29, 0,096, 0,986, 0,058, 22:33:26.058
240, 186226,48, 121548,58, 99144,67, 102279,26, 97990,55, 132347,61, 148422,81, 99024,04, 0,000, 0,000, 0,000, 22:33:26.478
241, 186297,67, 121262,81, 98870,57, 102000,51, 97708,93, 132460,70, 148566,52, 98741,78, 0,000, 0,000, 0,000, 22:33:26.478
242, 186163,11, 121282,06, 98908,88, 101976,95, 97752,31, 132412,42, 148833,06, 98774,79, 0,000, 0,000, 0,000, 22:33:26.479
243, 185904,03, 121539,73, 99167,13, 102202,77, 98019,34, 132268,03, 148854,19, 99033,49, 0,000, 0,000, 0,000, 22:33:26.480
244, 185833,81, 121731,71, 99345,72, 102407,42, 98198,48, 132232,02, 148608,00, 99222,84, 0,000, 0,000, 0,000, 22:33:26.480
245, 185975,02, 121563,89, 99167,45, 102291,50, 98010,30, 132357,38, 148437,39, 99044,51, 0,000, 0,000, 0,000, 22:33:26.480
246, 186014,14, 121295,85, 98901,48, 102026,79, 97743,98, 132470,53, 148578,80, 98767,39, 0,000, 0,000, 0,000, 22:33:26.481
247, 185792,77, 121254,50, 98879,38, 101950,51, 97729,80, 132422,30, 148844,70, 98737,89, 0,000, 0,000, 0,000, 22:33:26.481
248, 185496,30, 121556,59, 99188,27, 102208,20, 98044,56, 132279,03, 148870,77, 99053,63, 0,000, 0,000, 0,000, 22:33:26.482
249, 185391,42, 121709,18, 99320,09, 102385,91, 98175,23, 132240,56, 148623,31, 99189,04, 0,092, 0,984, 0,052, 22:33:26.482
250, 185514,95, 121589,66, 99190,18, 102309,25, 98035,17, 132364,36, 148448,84, 99055,51, 0,000, 0,000, 0,000, 22:33:26.482
251, 185593,08, 121340,28, 98952,09, 102083,84, 97791,56, 132479,23, 148587,23, 98813,46, 0,000, 0,000, 0,000, 22:33:26.483
252, 185401,02, 121295,23, 98921,48, 102001,71, 97766,68, 132431,31, 148853,31, 98797,05, 0,000, 0,000, 0,000, 22:33:26.483
253, 185124,50, 121589,84, 99213,69, 102249,86, 98066,63, 132287,63, 148881,86, 99083,98, 0,000, 0,000, 0,000, 22:33:26.484
254, 185062,98, 121819,20, 99423,77, 102489,49, 98269,91, 132250,28, 148637,44, 99282,83, 0,000, 0,000, 0,000, 22:33:26.484
255, 185189,31, 121611,45, 99206,25, 102339,94, 98038,84, 132371,70, 148459,83, 99069,81, 0,000, 0,000, 0,000, 22:33:26.485
0, 185234,11, 121314,31, 98910,96, 102045,43, 97745,56, 132486,09, 148596,20, 98780,05, 0,000, 0,000, 0,000, 22:33:26.485
1, 185068,33, 121342,21, 98957,90, 102024,18, 97800,41, 132443,05, 148865,03, 98815,96, 0,000, 0,000, 0,000, 22:33:26.486
2, 184806,42, 121638,48, 99262,02, 102285,98, 98114,56, 132298,83, 148897,22, 99115,88, 0,000, 0,000, 0,000, 22:33:26.486
3, 184718,67, 121844,00, 99457,88, 102514,46, 98308,29, 132258,02, 148654,42, 99320,89, 0,094, 0,984, 0,050, 22:33:26.486
4, 184807,80, 121662,38, 99266,26, 102388,22, 98114,74, 132376,73, 148473,09, 99130,05, 0,000, 0,000, 0,000, 22:33:26.487
5, 184803,39, 121324,59, 98936,04, 102069,75, 97787,02, 132487,70, 148604,19, 98809,93, 0,000, 0,000, 0,000, 22:33:26.487
6, 184618,39, 121344,98, 98978,35, 102046,46, 97832,33, 132443,31, 148873,50, 98870,95, 0,000, 0,000, 0,000, 22:33:26.488
7, 184353,36, 121665,59, 99301,16, 102322,66, 98155,31, 132300,33, 148909,39, 99188,27, 0,000, 0,000, 0,000, 22:33:26.489
8, 184260,08, 121815,02, 99434,99, 102501,38, 98288,24, 132257,75, 148667,38, 99322,99, 0,000, 0,000, 0,000, 22:33:26.489
9, 184358,66, 121639,66, 99248,20, 102377,55, 98097,98, 132376,50, 148483,86, 99132,53, 0,000, 0,000, 0,000, 22:33:26.490
10, 184416,81, 121372,12, 98979,63, 102126,70, 97828,62, 132492,31, 148613,06, 98863,28, 0,000, 0,000, 0,000, 22:33:26.490
11, 184228,97, 121373,45, 98988,81, 102080,73, 97848,06, 132449,64, 148880,78, 98875,58, 0,000, 0,000, 0,000, 22:33:26.490
12, 183911,38, 121605,31, 99228,47, 102277,55, 98083,79, 132302,63, 148914,22, 99111,23, 0,000, 0,000, 0,000, 22:33:26.491
13, 183765,27, 121736,42, 99350,10, 102424,27, 98201,96, 132256,59, 148669,98, 99226,70, 0,100, 0,980, 0,054, 22:33:26.491
14, 183821,92, 121591,95, 99194,67, 102319,31, 98044,20, 132375,23, 148486,20, 99074,06, 0,000, 0,000, 0,000, 22:33:26.492
15, 183861,13, 121408,88, 99014,78, 102137,55, 97869,41, 132494,39, 148619,83, 98894,46, 0,000, 0,000, 0,000, 22:33:26.492
16, 183673,69, 121406,24, 99027,12, 102101,80, 97885,62, 132454,13, 148890,75, 98906,31, 0,000, 0,000, 0,000, 22:33:26.493
17, 183334,09, 121645,32, 99277,46, 102305,09, 98134,95, 132308,98, 148930,09, 99156,42, 0,000, 0,000, 0,000, 22:33:26.493
18, 183180,67, 121822,05, 99435,20, 102498,13, 98294,09, 132264,39, 148690,77, 99316,93, 0,000, 0,000, 0,000, 22:33:26.493
19, 183278,22, 121665,77, 99244,49, 102374,52, 98098,79, 132381,67, 148504,36, 99120,62, 0,000, 0,000, 0,000, 22:33:26.494
20, 183329,27, 121371,40, 98955,39, 102092,98, 97807,12, 132496,63, 148628,56, 98827,38, 0,000, 0,000, 0,000, 22:33:26.494
21, 183140,00, 121373,41, 99015,61, 102080,19, 97872,12, 132456,55, 148899,14, 98889,05, 0,000, 0,000, 0,000, 22:33:26.495
22, 182860,11, 121701,20, 99358,09, 102372,30, 98216,45, 132315,14, 148943,59, 99236,00, 0,000, 0,000, 0,000, 22:33:26.495
23, 182757,20, 121856,14, 99498,66, 102550,76, 98355,27, 132268,48, 148703,48, 99385,55, 0,096, 0,988, 0,056, 22:33:26.496
24, 182846,42, 121692,39, 99323,03, 102440,81, 98174,63, 132384,75, 148515,05, 99211,14, 0,000, 0,000, 0,000, 22:33:26.496
25, 182872,22, 121395,96, 99023,63, 102157,48, 97879,85, 132500,69, 148635,03, 98895,45, 0,000, 0,000, 0,000, 22:33:26.497
26, 182693,61, 121388,61, 99034,34, 102108,22, 97897,69, 132461,91, 148902,16, 98902,09, 0,000, 0,000, 0,000, 22:33:26.497
27, 182400,78, 121637,43, 99297,13, 102326,08, 98161,70, 132316,94, 148945,72, 99180,68, 0,000, 0,000, 0,000, 22:33:26.498
28, 182299,33, 121807,86, 99456,12, 102513,70, 98319,13, 132266,53, 148704,42, 99357,44, 0,000, 0,000, 0,000, 22:33:26.498
29, 182430,53, 121672,41, 99305,58, 102418,77, 98161,64, 132382,56, 148512,36, 99195,45, 0,000, 0,000, 0,000, 22:33:26.498
30, 182526,22, 121427,32, 99068,31, 102187,66, 97923,99, 132503,80, 148631,81, 98952,13, 0,000, 0,000, 0,000, 22:33:26.499
31, 182377,11, 121430,16, 99092,08, 102150,64, 97952,02, 132470,61, 148903,19, 98974,10, 0,000, 0,000, 0,000, 22:33:26.499
32, 182115,34, 121705,16, 99371,12, 102388,76, 98233,34, 132328,67, 148953,56, 99253,45, 0,000, 0,000, 0,000, 22:33:26.500
33, 182003,25, 121837,55, 99488,98, 102538,24, 98347,13, 132278,25, 148716,00, 99374,87, 0,100, 0,984, 0,056, 22:33:26.500
34, 182150,53, 121717,38, 99357,21, 102460,80, 98208,16, 132395,22, 148525,27, 99229,07, 0,000, 0,000, 0,000, 22:33:26.500
35, 182239,05, 121406,47, 99045,09, 102168,95, 97894,45, 132514,97, 148642,02, 98908,05, 0,000, 0,000, 0,000, 22:33:26.501
36, 182059,38, 121346,19, 98994,95, 102064,63, 97851,87, 132476,58, 148911,97, 98863,57, 0,000, 0,000, 0,000, 22:33:26.501
37, 181771,52, 121610,25, 99266,95, 102283,99, 98124,00, 132331,22, 148963,28, 99136,60, 0,000, 0,000, 0,000, 22:33:26.502
38, 181679,83, 121799,08, 99442,57, 102488,20, 98298,30, 132279,20, 148727,77, 99319,05, 0,000, 0,000, 0,000, 22:33:26.502
39, 181799,53, 121681,06, 99311,37, 102414,59, 98166,53, 132394,52, 148535,36, 99194,02, 0,000, 0,000, 0,000, 22:33:26.502
40, 181864,97, 121418,59, 99051,38, 102171,38, 97902,65, 132517,41, 148653,25, 98928,13, 0,000, 0,000, 0,000, 22:33:26.503
41, 181685,83, 121348,58, 98996,84, 102067,72, 97849,56, 132484,81, 148925,36, 98864,65, 0,000, 0,000, 0,000, 22:33:26.503
42, 181400,67, 121641,36, 99303,50, 102312,07, 98150,15, 132343,73, 148981,80, 99165,70, 0,000, 0,000, 0,000, 22:33:26.504
43, 181297,52, 121840,96, 99484,95, 102531,94, 98326,46, 132293,11, 148749,63, 99354,93, 0,098, 0,986, 0,064, 22:33:26.504
44, 181397,23, 121655,16, 99289,15, 102396,58, 98128,02, 132403,69, 148549,16, 99149,77, 0,000, 0,000, 0,000, 22:33:26.504
45, 181510,16, 121400,32, 99037,49, 102150,04, 97875,54, 132524,89, 148659,50, 98889,14, 0,000, 0,000, 0,000, 22:33:26.505
46, 181430,56, 121423,61, 99072,56, 102131,66, 97916,09, 132493,83, 148932,34, 98926,23, 0,000, 0,000, 0,000, 22:33:26.505
47, 181187,50, 121664,74, 99320,71, 102336,66, 98162,24, 132350,13, 148990,58, 99179,29, 0,000, 0,000, 0,000, 22:33:26.506
48, 181102,55, 121853,73, 99497,87, 102540,93, 98337,14, 132296,64, 148759,23, 99368,27, 0,000, 0,000, 0,000, 22:33:26.506
49, 181254,27, 121700,55, 99328,31, 102440,92, 98161,82, 132408,13, 148560,91, 99189,30, 0,000, 0,000, 0,000, 22:33:26.506
50, 181366,25, 121396,70, 99026,41, 102153,15, 97860,76, 132531,11, 148668,80, 98892,38, 0,000, 0,000, 0,000, 22:33:26.507
51, 181256,28, 121384,99, 99026,23, 102098,63, 97868,20, 132500,91, 148940,33, 98911,79, 0,000, 0,000, 0,000, 22:33:26.507
52, 180974,31, 121629,56, 99277,77, 102309,54, 98124,18, 132355,00, 149000,61, 99157,05, 0,000, 0,000, 0,000, 22:33:26.508
53, 180833,05, 121831,11, 99477,84, 102523,72, 98315,24, 132296,50, 148770,33, 99341,37, 0,100, 0,984, 0,066, 22:33:26.508
54, 180929,31, 121713,38, 99347,02, 102459,59, 98181,35, 132406,56, 148567,92, 99213,78, 0,000, 0,000, 0,000, 22:33:26.508
55, 181009,25, 121467,27, 99099,79, 102228,02, 97937,52, 132532,41, 148673,36, 98987,45, 0,000, 0,000, 0,000, 22:33:26.509
56, 180878,33, 121450,05, 99091,05, 102171,74, 97933,12, 132506,56, 148945,36, 98967,91, 0,000, 0,000, 0,000, 22:33:26.509
57, 180616,58, 121690,13, 99330,57, 102371,59, 98176,10, 132360,28, 149006,73, 99198,52, 0,000, 0,000, 0,000, 22:33:26.510
58, 180519,59, 121858,24, 99488,93, 102553,00, 98332,49, 132298,36, 148777,39, 99369,68, 0,000, 0,000, 0,000, 22:33:26.510
59, 180644,02, 121684,55, 99309,71, 102432,72, 98146,23, 132405,42, 148573,41, 99186,27, 0,000, 0,000, 0,000, 22:33:26.510
60, 180757,08, 121428,71, 99058,66, 102189,80, 97894,34, 132528,77, 148676,36, 98919,56, 0,000, 0,000, 0,000, 22:33:26.511
61, 180633,06, 121409,28, 99053,56, 102132,63, 97893,59, 132500,52, 148951,94, 98932,13, 0,000, 0,000, 0,000, 22:33:26.512
62, 180359,13, 121617,40, 99265,91, 102307,75, 98112,51, 132353,77, 149018,20, 99148,55, 0,000, 0,000, 0,000, 22:33:26.512
63, 180265,34, 121817,49, 99454,35, 102517,32, 98302,84, 132293,06, 148792,78, 99332,80, 0,096, 0,986, 0,068, 22:33:26.513
64, 180421,08, 121686,34, 99313,36, 102442,63, 98155,72, 132403,97, 148589,92, 99196,19, 0,000, 0,000, 0,000, 22:33:26.513
65, 180595,23, 121434,37, 99068,88, 102212,76, 97907,30, 132531,84, 148689,41, 98949,52, 0,000, 0,000, 0,000, 22:33:26.513
66, 180547,02, 121406,70, 99053,27, 102148,74, 97893,62, 132508,73, 148961,47, 98930,78, 0,000, 0,000, 0,000, 22:33:26.514
67, 180309,14, 121613,70, 99266,35, 102315,24, 98107,68, 132364,48, 149028,00, 99143,02, 0,000, 0,000, 0,000, 22:33:26.514
68, 180226,28, 121773,84, 99410,88, 102482,81, 98248,79, 132298,03, 148800,16, 99274,64, 0,000, 0,000, 0,000, 22:33:26.515
69, 180356,58, 121602,45, 99220,66, 102351,92, 98059,58, 132401,56, 148591,94, 99088,59, 0,000, 0,000, 0,000, 22:33:26.515
70, 180492,75, 121347,98, 98975,78, 102116,04, 97812,52, 132528,94, 148689,98, 98847,21, 0,000, 0,000, 0,000, 22:33:26.515
71, 180381,13, 121279,98, 98921,44, 102017,56, 97761,45, 132506,80, 148963,27, 98793,09, 0,000, 0,000, 0,000, 22:33:26.516
72, 180136,38, 121546,68, 99192,34, 102234,28, 98041,88, 132363,98, 149037,27, 99068,13, 0,000, 0,000, 0,000, 22:33:26.516
73, 180065,38, 121756,16, 99392,39, 102457,40, 98240,02, 132299,84, 148813,69, 99263,67, 0,100, 0,980, 0,062, 22:33:26.517
74, 180221,19, 121615,93, 99239,73, 102366,45, 98079,56, 132405,27, 148603,44, 99114,36, 0,000, 0,000, 0,000, 22:33:26.517
75, 180342,09, 121379,76, 99011,36, 102144,54, 97840,69, 132533,53, 148697,64, 98878,39, 0,000, 0,000, 0,000, 22:33:26.517
76, 180208,03, 121320,91, 98966,91, 102050,04, 97802,70, 132509,08, 148969,92, 98819,09, 0,000, 0,000, 0,000, 22:33:26.518
77, 179958,36, 121616,59, 99268,20, 102299,75, 98108,93, 132366,80, 149046,97, 99127,75, 0,000, 0,000, 0,000, 22:33:26.518
78, 179870,25, 121821,23, 99461,03, 102519,94, 98298,59, 132304,08, 148825,42, 99331,08, 0,000, 0,000, 0,000, 22:33:26.519
79, 180001,23, 121684,77, 99310,54, 102433,86, 98143,29, 132410,81, 148615,06, 99182,66, 0,000, 0,000, 0,000, 22:33:26.519
80, 180127,63, 121442,73, 99065,79, 102205,70, 97898,27, 132542,36, 148708,23, 98926,88, 0,000, 0,000, 0,000, 22:33:26.520
81, 180008,78, 121392,19, 99031,21, 102125,14, 97869,50, 132524,52, 148982,16, 98893,59, 0,000, 0,000, 0,000, 22:33:26.520
82, 179733,67, 121642,48, 99286,29, 102335,27, 98129,77, 132381,17, 149061,05, 99142,57, 0,000, 0,000, 0,000, 22:33:26.521
83, 179595,64, 121836,90, 99451,34, 102528,16, 98294,90, 132313,69, 148838,94, 99306,63, 0,098, 0,980, 0,064, 22:33:26.522
84, 179697,98, 121734,10, 99335,77, 102473,00, 98171,00, 132417,70, 148624,19, 99211,52, 0,000, 0,000, 0,000, 22:33:26.522
85, 179743,17, 121406,05, 99040,76, 102193,73, 97873,44, 132545,61, 148711,16, 98919,05, 0,000, 0,000, 0,000, 22:33:26.523
86, 179579,75, 121355,57, 99014,88, 102109,88, 97854,33, 132527,95, 148984,14, 98894,35, 0,000, 0,000, 0,000, 22:33:26.524
87, 179365,61, 121664,41, 99319,17, 102357,82, 98167,38, 132388,42, 149067,67, 99195,67, 0,000, 0,000, 0,000, 22:33:26.524
88, 179364,45, 121896,95, 99541,75, 102602,21, 98391,10, 132322,88, 148851,95, 99409,83, 0,000, 0,000, 0,000, 22:33:26.525
89, 179591,45, 121702,90, 99338,66, 102465,87, 98185,20, 132423,91, 148635,56, 99200,08, 0,000, 0,000, 0,000, 22:33:26.526
90, 179840,50, 121390,60, 99034,95, 102168,01, 97879,54, 132551,05, 148718,52, 98896,77, 0,000, 0,000, 0,000, 22:33:26.526
91, 179928,55, 121381,44, 99045,02, 102119,93, 97890,42, 132534,33, 148992,81, 98925,94, 0,000, 0,000, 0,000, 22:33:26.526
92, 179925,41, 121549,99, 99222,25, 102256,39, 98064,70, 132388,44, 149072,42, 99099,59, 0,000, 0,000, 0,000, 22:33:26.527
93, 180007,39, 121668,92, 99321,27, 102376,06, 98164,97, 132312,05, 148849,38, 99194,16, 0,104, 0,980, 0,064, 22:33:26.528
94, 180341,92, 121571,89, 99205,89, 102312,76, 98043,33, 132410,55, 148631,08, 99065,16, 0,000, 0,000, 0,000, 22:33:26.529
95, 180673,02, 121350,50, 98985,95, 102114,37, 97820,69, 132541,89, 148715,25, 98839,50, 0,000, 0,000, 0,000, 22:33:26.530
96, 180705,05, 121262,32, 98918,23, 102006,43, 97756,98, 132527,41, 148990,47, 98769,80, 0,000, 0,000, 0,000, 22:33:26.530
97, 180532,89, 121496,01, 99165,01, 102203,55, 98012,13, 132386,92, 149079,11, 99020,08, 0,000, 0,000, 0,000, 22:33:26.531
98, 180477,13, 121671,13, 99327,51, 102391,30, 98172,23, 132316,25, 148862,64, 99194,55, 0,000, 0,000, 0,000, 22:33:26.532
99, 180690,09, 121513,53, 99153,61, 102281,69, 97989,02, 132412,09, 148643,77, 99010,60, 0,000, 0,000, 0,000, 22:33:26.532
100, 180931,94, 121245,16, 98886,15, 102020,91, 97722,41, 132538,22, 148722,16, 98738,41, 0,000, 0,000, 0,000, 22:33:26.532
101, 180940,92, 121242,56, 98894,42, 101980,59, 97737,24, 132524,03, 148994,63, 98750,85, 0,000, 0,000, 0,000, 22:33:26.533
102, 180712,34, 121470,22, 99129,70, 102170,22, 97976,37, 132382,81, 149083,83, 98997,39, 0,000, 0,000, 0,000, 22:33:26.533
103, 180552,25, 121674,76, 99328,20, 102381,00, 98170,87, 132312,06, 148872,11, 99186,63, 0,000, 0,000, 0,000, 22:33:26.534
104, 180577,13, 121584,39, 99217,60, 102330,53, 98055,73, 132414,52, 148655,55, 99058,37, 0,100, 0,980, 0,068, 22:33:26.957
105, 180638,64, 121301,08, 98938,88, 102072,88, 97775,04, 132545,02, 148731,70, 98775,95, 0,000, 0,000, 0,000, 22:33:26.958
106, 180526,56, 121281,86, 98943,77, 102014,43, 97779,87, 132532,52, 149005,19, 98780,80, 0,000, 0,000, 0,000, 22:33:26.958
107, 180193,91, 121539,95, 99207,95, 102233,01, 98044,27, 132391,41, 149100,14, 99060,34, 0,000, 0,000, 0,000, 22:33:26.959
108, 179950,63, 121758,28, 99415,33, 102457,58, 98253,28, 132317,94, 148889,55, 99273,68, 0,000, 0,000, 0,000, 22:33:26.959
109, 179981,61, 121696,26, 99332,73, 102436,21, 98167,96, 132418,45, 148670,34, 99178,27, 0,000, 0,000, 0,000, 22:33:26.961
110, 180129,86, 121494,52, 99131,81, 102259,09, 97965,46, 132554,95, 148745,94, 98972,31, 0,000, 0,000, 0,000, 22:33:26.962
111, 180183,33, 121386,48, 99036,04, 102129,99, 97872,85, 132544,86, 149017,73, 98892,16, 0,000, 0,000, 0,000, 22:33:26.962
112, 180065,56, 121607,77, 99262,15, 102301,52, 98103,91, 132404,91, 149111,88, 99121,45, 0,000, 0,000, 0,000, 22:33:26.963
113, 180010,17, 121791,05, 99436,34, 102499,35, 98277,60, 132330,89, 148899,97, 99277,52, 0,000, 0,000, 0,000, 22:33:26.963
114, 180130,88, 121636,71, 99264,97, 102393,98, 98102,95, 132426,50, 148674,05, 99106,00, 0,100, 0,978, 0,062, 22:33:26.964
115, 180300,41, 121353,95, 98980,30, 102129,70, 97813,63, 132556,30, 148742,36, 98838,77, 0,000, 0,000, 0,000, 22:33:26.964
116, 180291,84, 121333,45, 98979,91, 102073,28, 97816,41, 132547,25, 149012,50, 98835,55, 0,000, 0,000, 0,000, 22:33:26.965
117, 180078,14, 121574,51, 99229,16, 102274,41, 98069,93, 132408,53, 149108,77, 99082,28, 0,000, 0,000, 0,000, 22:33:26.965
118, 179936,66, 121765,37, 99408,71, 102464,22, 98253,86, 132332,81, 148899,14, 99260,77, 0,000, 0,000, 0,000, 22:33:26.965
119, 180069,78, 121673,80, 99303,27, 102417,86, 98144,72, 132429,05, 148673,27, 99154,37, 0,000, 0,000, 0,000, 22:33:26.966
120, 180232,02, 121386,30, 99012,48, 102151,18, 97856,56, 132561,67, 148742,27, 98861,85, 0,000, 0,000, 0,000, 22:33:26.967
121, 180173,25, 121358,59, 99000,57, 102083,70, 97847,53, 132554,95, 149015,97, 98860,48, 0,000, 0,000, 0,000, 22:33:26.967
122, 179905,19, 121598,38, 99247,77, 102284,75, 98092,77, 132414,95, 149117,73, 99120,30, 0,000, 0,000, 0,000, 22:33:26.968
123, 179699,09, 121807,62, 99445,88, 102505,81, 98297,07, 132336,89, 148911,36, 99328,34, 0,000, 0,000, 0,000, 22:33:26.968
124, 179767,98, 121696,15, 99322,52, 102454,13, 98170,53, 132431,75, 148682,55, 99199,14, 0,100, 0,984, 0,064, 22:33:26.969
125, 179934,94, 121453,20, 99085,03, 102230,69, 97928,38, 132565,94, 148746,81, 98956,53, 0,000, 0,000, 0,000, 22:33:26.969
126, 179889,19, 121370,20, 99015,27, 102117,95, 97854,10, 132563,36, 149016,91, 98870,84, 0,000, 0,000, 0,000, 22:33:26.970
127, 179635,91, 121599,32, 99254,62, 102295,08, 98101,29, 132425,61, 149121,53, 99121,98, 0,000, 0,000, 0,000, 22:33:26.970
128, 179511,08, 121798,36, 99445,68, 102502,26, 98293,47, 132349,55, 148918,97, 99321,34, 0,000, 0,000, 0,000, 22:33:26.971
129, 179651,89, 121700,02, 99332,96, 102447,79, 98178,29, 132444,77, 148691,58, 99202,83, 0,000, 0,000, 0,000, 22:33:26.972
130, 179841,25, 121411,34, 99047,02, 102190,56, 97889,04, 132579,09, 148752,80, 98912,79, 0,000, 0,000, 0,000, 22:33:26.972
131, 179810,81, 121303,83, 98958,68, 102054,28, 97799,45, 132574,66, 149022,45, 98826,40, 0,000, 0,000, 0,000, 22:33:26.973
132, 179582,42, 121492,19, 99153,32, 102194,56, 98000,17, 132432,50, 149127,95, 99012,23, 0,000, 0,000, 0,000, 22:33:26.973
133, 179495,80, 121767,67, 99415,02, 102462,02, 98266,22, 132351,56, 148927,20, 99271,67, 0,000, 0,000, 0,000, 22:33:26.974
134, 179668,56, 121698,23, 99335,13, 102454,89, 98180,05, 132446,44, 148699,42, 99202,47, 0,096, 0,984, 0,066, 22:33:26.974
135, 179831,13, 121433,49, 99071,34, 102215,55, 97915,23, 132585,88, 148759,33, 98935,73, 0,000, 0,000, 0,000, 22:33:26.975
136, 179768,84, 121388,16, 99039,70, 102133,19, 97889,87, 132586,92, 149034,66, 98898,64, 0,000, 0,000, 0,000, 22:33:26.975
137, 179524,72, 121640,91, 99300,52, 102345,93, 98154,33, 132450,47, 149149,03, 99170,06, 0,000, 0,000, 0,000, 22:33:26.975
138, 179378,67, 121866,94, 99518,05, 102579,15, 98367,77, 132370,63, 148948,69, 99390,05, 0,000, 0,000, 0,000, 22:33:26.976
139, 179450,58, 121746,57, 99380,52, 102506,52, 98224,83, 132460,84, 148715,38, 99248,25, 0,000, 0,000, 0,000, 22:33:26.976
140, 179529,45, 121507,61, 99147,33, 102288,15, 97986,89, 132596,80, 148768,72, 99010,11, 0,000, 0,000, 0,000, 22:33:26.977
141, 179382,11, 121426,90, 99084,95, 102183,09, 97925,83, 132598,56, 149037,88, 98954,66, 0,000, 0,000, 0,000, 22:33:26.978
142, 179063,53, 121650,10, 99311,99, 102353,89, 98158,60, 132462,05, 149147,80, 99182,94, 0,000, 0,000, 0,000, 22:33:26.978
143, 178906,67, 121932,14, 99575,88, 102630,69, 98424,70, 132381,98, 148949,36, 99447,89, 0,000, 0,000, 0,000, 22:33:26.978
144, 179026,64, 121890,95, 99512,89, 102633,17, 98357,02, 132475,91, 148718,13, 99378,11, 0,098, 0,984, 0,066, 22:33:26.979
145, 179153,89, 121586,20, 99203,88, 102359,68, 98048,74, 132611,13, 148769,50, 99078,73, 0,000, 0,000, 0,000, 22:33:26.979
146, 179041,98, 121442,16, 99083,89, 102187,26, 97928,45, 132609,19, 149037,69, 98960,13, 0,000, 0,000, 0,000, 22:33:26.979
147, 178804,22, 121715,99, 99364,95, 102405,85, 98211,08, 132474,06, 149153,09, 99232,47, 0,000, 0,000, 0,000, 22:33:26.980
148, 178672,70, 121922,55, 99561,17, 102621,39, 98409,05, 132390,03, 148955,66, 99428,34, 0,000, 0,000, 0,000, 22:33:26.980
149, 178744,23, 121780,86, 99406,79, 102532,01, 98254,45, 132477,25, 148720,20, 99281,04, 0,000, 0,000, 0,000, 22:33:26.981
150, 178845,02, 121478,04, 99105,20, 102255,20, 97952,29, 132610,97, 148768,64, 98979,96, 0,000, 0,000, 0,000, 22:33:26.981
151, 178740,80, 121398,42, 99039,19, 102134,98, 97888,10, 132611,28, 149039,34, 98903,83, 0,000, 0,000, 0,000, 22:33:26.981
152, 178480,55, 121656,95, 99307,39, 102346,02, 98163,67, 132475,05, 149160,73, 99172,43, 0,000, 0,000, 0,000, 22:33:26.982
153, 178354,91, 121895,63, 99542,44, 102599,16, 98400,51, 132389,53, 148966,19, 99410,25, 0,000, 0,000, 0,000, 22:33:26.982
154, 178467,91, 121783,34, 99422,52, 102538,36, 98267,79, 132476,45, 148727,14, 99281,77, 0,096, 0,982, 0,068, 22:33:26.982
155, 178631,14, 121501,35, 99148,22, 102279,21, 97985,55, 132613,81, 148770,59, 98999,43, 0,000, 0,000, 0,000, 22:33:26.983
156, 178652,39, 121364,45, 99029,34, 102119,93, 97875,18, 132614,70, 149036,16, 98880,38, 0,000, 0,000, 0,000, 22:33:26.983
157, 178519,28, 121569,23, 99244,54, 102279,21, 98101,83, 132475,23, 149154,84, 99110,63, 0,000, 0,000, 0,000, 22:33:26.983
158, 178450,44, 121825,85, 99490,95, 102531,34, 98349,21, 132388,55, 148962,75, 99364,74, 0,000, 0,000, 0,000, 22:33:26.984
159, 178586,67, 121771,72, 99419,17, 102521,03, 98272,13, 132476,03, 148726,94, 99273,13, 0,000, 0,000, 0,000, 22:33:26.984
160, 178745,17, 121495,77, 99139,33, 102269,71, 97990,09, 132613,31, 148772,64, 98977,34, 0,000, 0,000, 0,000, 22:33:26.985
161, 178720,20, 121405,09, 99055,26, 102141,92, 97903,81, 132619,80, 149041,50, 98907,67, 0,000, 0,000, 0,000, 22:33:26.985
162, 178471,28, 121594,24, 99254,84, 102290,63, 98109,38, 132485,63, 149163,83, 99129,13, 0,000, 0,000, 0,000, 22:33:26.985
163, 178350,47, 121832,70, 99497,24, 102539,61, 98354,02, 132397,61, 148974,33, 99367,45, 0,000, 0,000, 0,000, 22:33:26.986
164, 178557,59, 121733,45, 99392,13, 102501,19, 98241,66, 132480,30, 148734,56, 99251,94, 0,094, 0,984, 0,066, 22:33:26.986
165, 178778,55, 121442,30, 99107,95, 102238,73, 97955,76, 132618,75, 148774,38, 98978,30, 0,000, 0,000, 0,000, 22:33:26.986
166, 178721,88, 121315,48, 98996,90, 102091,68, 97847,22, 132626,55, 149043,91, 98873,19, 0,000, 0,000, 0,000, 22:33:26.987
167, 178502,05, 121534,52, 99232,27, 102265,55, 98090,76, 132492,08, 149172,83, 99114,59, 0,000, 0,000, 0,000, 22:33:26.987
168, 178431,94, 121794,67, 99485,48, 102531,12, 98342,45, 132403,64, 148987,63, 99371,78, 0,000, 0,000, 0,000, 22:33:26.988
169, 178634,78, 121724,06, 99392,98, 102506,23, 98244,25, 132488,94, 148750,55, 99271,52, 0,000, 0,000, 0,000, 22:33:26.988
170, 178853,17, 121420,46, 99098,20, 102236,09, 97947,42, 132629,34, 148790,89, 98970,77, 0,000, 0,000, 0,000, 22:33:26.988
171, 178803,95, 121318,89, 99019,19, 102120,06, 97876,01, 132638,52, 149061,61, 98899,76, 0,000, 0,000, 0,000, 22:33:26.989
172, 178532,50, 121482,94, 99188,90, 102246,45, 98056,18, 132498,41, 149190,02, 99076,48, 0,000, 0,000, 0,000, 22:33:26.989
173, 178382,00, 121680,27, 99387,43, 102446,69, 98250,27, 132401,11, 149002,44, 99273,80, 0,000, 0,000, 0,000, 22:33:26.989
174, 178534,80, 121645,01, 99350,53, 102462,16, 98207,82, 132483,77, 148761,77, 99225,20, 0,094, 0,988, 0,070, 22:33:26.990
175, 178765,69, 121387,24, 99113,55, 102251,31, 97966,89, 132624,50, 148796,66, 98975,06, 0,000, 0,000, 0,000, 22:33:26.990
176, 178751,09, 121282,04, 99037,52, 102141,86, 97892,34, 132637,61, 149066,11, 98912,86, 0,000, 0,000, 0,000, 22:33:26.990
177, 178524,88, 121459,80, 99230,30, 102283,63, 98093,71, 132502,91, 149196,95, 99122,23, 0,000, 0,000, 0,000, 22:33:26.991
178, 178437,19, 121686,45, 99459,65, 102526,04, 98327,09, 132409,86, 149012,75, 99354,82, 0,000, 0,000, 0,000, 22:33:26.991
179, 178675,30, 121564,96, 99332,55, 102466,34, 98194,54, 132489,20, 148767,63, 99219,93, 0,000, 0,000, 0,000, 22:33:26.992
180, 179068,77, 121261,56, 99031,50, 102192,24, 97890,94, 132625,50, 148796,67, 98914,87, 0,000, 0,000, 0,000, 22:33:26.992
181, 179221,83, 121140,39, 98938,07, 102053,16, 97799,27, 132635,41, 149062,91, 98817,15, 0,000, 0,000, 0,000, 22:33:26.992
182, 179102,98, 121349,49, 99168,36, 102216,27, 98034,50, 132500,16, 149197,11, 99048,06, 0,000, 0,000, 0,000, 22:33:26.993
183, 179075,70, 121606,41, 99410,95, 102467,63, 98277,02, 132406,30, 149018,16, 99292,62, 0,000, 0,000, 0,000, 22:33:26.993
184, 179334,09, 121509,09, 99302,00, 102414,10, 98162,89, 132485,52, 148775,53, 99180,14, 0,100, 0,978, 0,070, 22:33:26.993
185, 179779,39, 121257,38, 99058,91, 102196,95, 97914,36, 132626,03, 148805,77, 98926,20, 0,000, 0,000, 0,000, 22:33:26.994
186, 179974,25, 121129,89, 98942,95, 102049,32, 97808,10, 132639,19, 149072,52, 98822,60, 0,000, 0,000, 0,000, 22:33:26.994
187, 179921,56, 121315,16, 99134,38, 102184,20, 98006,70, 132501,31, 149209,83, 99024,28, 0,000, 0,000, 0,000, 22:33:26.995
188, 179913,39, 121568,01, 99377,17, 102434,48, 98246,87, 132401,42, 149031,22, 99271,05, 0,000, 0,000, 0,000, 22:33:26.996
189, 180168,78, 121473,41, 99268,85, 102391,48, 98128,54, 132478,41, 148787,64, 99158,84, 0,000, 0,000, 0,000, 22:33:26.996
190, 180491,73, 121210,69, 99007,70, 102152,61, 97863,45, 132619,56, 148815,86, 98905,39, 0,000, 0,000, 0,000, 22:33:26.996
191, 180552,02, 121108,01, 98916,63, 102021,92, 97777,05, 132636,05, 149082,63, 98814,22, 0,000, 0,000, 0,000, 22:33:26.997
192, 180431,91, 121297,55, 99107,59, 102161,57, 97978,96, 132504,91, 149223,59, 99016,28, 0,000, 0,000, 0,000, 22:33:26.997
193, 180411,94, 121520,59, 99319,15, 102377,76, 98191,27, 132405,63, 149047,58, 99224,15, 0,000, 0,000, 0,000, 22:33:26.998
194, 180701,36, 121484,16, 99259,84, 102378,05, 98122,68, 132479,81, 148802,11, 99152,13, 0,102, 0,978, 0,070, 22:33:26.998
195, 181055,22, 121170,81, 98936,77, 102091,27, 97794,22, 132617,72, 148823,03, 98817,73, 0,000, 0,000, 0,000, 22:33:26.998
196, 181193,77, 121081,27, 98857,27, 101962,48, 97716,03, 132632,78, 149086,56, 98730,45, 0,000, 0,000, 0,000, 22:33:26.999
197, 181051,97, 121341,13, 99121,20, 102166,63, 97981,95, 132500,38, 149231,17, 99006,27, 0,000, 0,000, 0,000, 22:33:26.999
198, 180971,72, 121609,65, 99374,71, 102428,25, 98235,47, 132402,09, 149059,63, 99256,92, 0,000, 0,000, 0,000, 22:33:26.999
199, 181189,45, 121504,19, 99238,57, 102363,41, 98095,86, 132475,36, 148811,61, 99119,50, 0,000, 0,000, 0,000, 22:33:27.000
200, 181521,39, 121219,81, 98954,19, 102101,76, 97805,15, 132618,80, 148832,50, 98834,56, 0,000, 0,000, 0,000, 22:33:27.000
201, 181668,45, 121070,16, 98826,36, 101926,43, 97681,86, 132636,88, 149098,00, 98699,73, 0,000, 0,000, 0,000, 22:33:27.000
202, 181551,81, 121275,55, 99045,85, 102070,58, 97906,78, 132501,98, 149243,33, 98921,51, 0,000, 0,000, 0,000, 22:33:27.001
203, 181474,59, 121575,63, 99335,17, 102360,86, 98199,79, 132400,55, 149074,00, 99214,14, 0,000, 0,000, 0,000, 22:33:27.001
204, 181691,05, 121562,66, 99303,43, 102392,84, 98162,78, 132472,34, 148826,25, 99167,34, 0,102, 0,978, 0,070, 22:33:27.002
205, 182017,98, 121281,59, 99014,38, 102141,97, 97869,37, 132612,88, 148842,25, 98868,11, 0,000, 0,000, 0,000, 22:33:27.002
206, 182125,25, 121080,83, 98823,16, 101919,59, 97680,77, 132629,88, 149103,44, 98683,66, 0,000, 0,000, 0,000, 22:33:27.002
207, 181976,03, 121317,87, 99074,84, 102096,77, 97939,35, 132497,58, 149252,66, 98939,50, 0,000, 0,000, 0,000, 22:33:27.003
208, 181894,38, 121610,23, 99353,95, 102387,70, 98218,01, 132398,08, 149085,77, 99226,09, 0,000, 0,000, 0,000, 22:33:27.003
209, 182073,73, 121587,43, 99305,49, 102406,39, 98166,40, 132471,44, 148837,64, 99185,91, 0,000, 0,000, 0,000, 22:33:27.003
210, 182312,09, 121251,46, 98958,61, 102105,58, 97817,78, 132611,42, 148851,50, 98836,13, 0,000, 0,000, 0,000, 22:33:27.004
211, 182375,59, 121129,59, 98845,91, 101946,05, 97708,13, 132631,09, 149114,56, 98722,76, 0,000, 0,000, 0,000, 22:33:27.004
212, 182213,84, 121388,95, 99111,63, 102148,41, 97975,00, 132501,31, 149267,38, 98990,13, 0,000, 0,000, 0,000, 22:33:27.005
213, 182090,78, 121670,11, 99383,25, 102431,60, 98245,28, 132399,91, 149101,91, 99270,30, 0,000, 0,000, 0,000, 22:33:27.005
214, 182241,34, 121575,91, 99270,98, 102384,04, 98122,52, 132466,38, 148848,48, 99138,14, 0,094, 0,980, 0,070, 22:33:27.005
215, 182564,59, 121332,40, 99023,12, 102159,70, 97868,54, 132607,63, 148860,89, 98872,67, 0,000, 0,000, 0,000, 22:33:27.006
216, 182683,69, 121200,16, 98902,51, 101997,82, 97752,09, 132633,55, 149123,56, 98760,15, 0,000, 0,000, 0,000, 22:33:27.006
217, 182512,56, 121419,70, 99131,50, 102165,23, 97989,06, 132505,89, 149277,64, 99010,13, 0,000, 0,000, 0,000, 22:33:27.006
218, 182393,00, 121712,27, 99414,92, 102450,47, 98271,97, 132405,45, 149115,72, 99307,63, 0,000, 0,000, 0,000, 22:33:27.007
219, 182566,83, 121682,83, 99364,77, 102468,13, 98218,52, 132477,42, 148866,80, 99249,01, 0,000, 0,000, 0,000, 22:33:27.007
220, 182857,63, 121387,00, 99063,42, 102207,70, 97920,11, 132620,52, 148875,31, 98933,09, 0,000, 0,000, 0,000, 22:33:27.008
221, 182949,84, 121181,86, 98873,19, 101983,16, 97730,38, 132645,08, 149134,25, 98740,26, 0,000, 0,000, 0,000, 22:33:27.010
222, 182786,84, 121371,17, 99069,84, 102114,41, 97929,54, 132518,44, 149287,39, 98949,74, 0,000, 0,000, 0,000, 22:33:27.021
223, 182684,67, 121681,46, 99371,00, 102412,47, 98234,66, 132415,78, 149125,63, 99258,57, 0,000, 0,000, 0,000, 22:33:27.023
224, 182854,42, 121654,30, 99323,23, 102427,11, 98185,29, 132483,28, 148874,22, 99198,29, 0,000, 0,000, 0,000, 22:33:27.438
225, 183177,72, 121424,80, 99093,26, 102227,40, 97950,39, 132627,56, 148881,50, 98970,91, 0,100, 0,978, 0,070, 22:33:27.438
226, 183277,92, 121235,48, 98920,57, 102029,43, 97782,95, 132654,92, 149141,36, 98811,49, 0,000, 0,000, 0,000, 22:33:27.439
227, 183119,28, 121392,90, 99083,18, 102137,21, 97956,67, 132525,92, 149297,11, 98972,49, 0,000, 0,000, 0,000, 22:33:27.439
228, 183014,72, 121666,76, 99350,17, 102397,12, 98217,16, 132418,39, 149135,59, 99234,77, 0,000, 0,000, 0,000, 22:33:27.439
229, 183174,53, 121620,98, 99290,71, 102393,85, 98147,29, 132483,25, 148882,11, 99169,95, 0,000, 0,000, 0,000, 22:33:27.440
230, 183468,28, 121361,34, 99022,59, 102167,95, 97880,19, 132626,19, 148885,84, 98890,44, 0,000, 0,000, 0,000, 22:33:27.440
231, 183582,11, 121208,81, 98883,11, 101992,99, 97742,41, 132655,91, 149144,02, 98751,59, 0,000, 0,000, 0,000, 22:33:27.440
232, 183447,94, 121390,89, 99085,01, 102130,37, 97944,47, 132531,52, 149306,03, 98957,41, 0,000, 0,000, 0,000, 22:33:27.441
233, 183328,91, 121656,31, 99345,52, 102385,76, 98207,52, 132424,27, 149150,81, 99219,26, 0,000, 0,000, 0,000, 22:33:27.441
234, 183479,08, 121606,43, 99271,45, 102376,64, 98127,69, 132488,31, 148895,98, 99134,70, 0,000, 0,000, 0,000, 22:33:27.441
235, 183764,33, 121330,96, 98988,48, 102131,89, 97840,49, 132631,00, 148894,20, 98842,49, 0,102, 0,982, 0,066, 22:33:27.442
236, 183860,02, 121175,38, 98850,70, 101952,63, 97702,18, 132658,50, 149150,91, 98714,71, 0,000, 0,000, 0,000, 22:33:27.442
237, 183728,14, 121408,73, 99094,16, 102135,31, 97952,13, 132533,34, 149317,84, 98968,24, 0,000, 0,000, 0,000, 22:33:27.443
238, 183618,88, 121692,86, 99365,28, 102408,60, 98225,70, 132426,80, 149165,97, 99238,19, 0,000, 0,000, 0,000, 22:33:27.444
239, 183737,09, 121624,64, 99272,54, 102383,75, 98127,15, 132490,47, 148910,48, 99138,21, 0,000, 0,000, 0,000, 22:33:27.445
240, 183982,70, 121392,41, 99041,16, 102175,72, 97888,41, 132636,16, 148910,72, 98914,02, 0,000, 0,000, 0,000, 22:33:27.445
241, 184026,27, 121208,16, 98877,99, 101980,57, 97723,19, 132667,83, 149169,75, 98747,16, 0,000, 0,000, 0,000, 22:33:27.445
242, 183841,06, 121450,14, 99132,95, 102159,18, 97982,91, 132545,97, 149338,64, 98997,68, 0,000, 0,000, 0,000, 22:33:27.446
243, 183700,55, 121774,38, 99445,99, 102475,81, 98297,34, 132439,38, 149189,53, 99306,77, 0,000, 0,000, 0,000, 22:33:27.446
244, 183798,02, 121726,32, 99379,72, 102480,55, 98232,54, 132499,77, 148934,23, 99237,67, 0,000, 0,000, 0,000, 22:33:27.446
245, 184017,33, 121443,15, 99105,27, 102235,16, 97944,58, 132644,14, 148928,78, 98954,55, 0,094, 0,984, 0,070, 22:33:27.447
246, 184082,66, 121294,38, 98967,17, 102067,36, 97807,74, 132678,13, 149187,08, 98834,60, 0,000, 0,000, 0,000, 22:33:27.447
247, 183908,72, 121466,28, 99146,95, 102189,67, 97992,81, 132556,13, 149356,30, 99029,34, 0,000, 0,000, 0,000, 22:33:27.447
248, 183807,91, 121815,86, 99487,43, 102520,66, 98335,09, 132453,66, 149211,03, 99374,65, 0,000, 0,000, 0,000, 22:33:27.448
249, 183957,36, 121822,13, 99475,81, 102579,41, 98318,19, 132516,66, 148956,06, 99353,45, 0,000, 0,000, 0,000, 22:33:27.448
250, 184183,64, 121533,12, 99183,36, 102325,43, 98020,53, 132659,61, 148945,45, 99050,01, 0,000, 0,000, 0,000, 22:33:27.448
251, 184245,44, 121352,98, 99008,16, 102121,27, 97850,75, 132691,38, 149197,52, 98873,30, 0,000, 0,000, 0,000, 22:33:27.449
252, 184092,84, 121560,72, 99224,45, 102268,57, 98077,02, 132567,39, 149366,28, 99098,11, 0,000, 0,000, 0,000, 22:33:27.449
253, 183989,70, 121876,77, 99538,44, 102582,12, 98383,79, 132458,98, 149221,00, 99417,12, 0,000, 0,000, 0,000, 22:33:27.449
254, 184084,56, 121765,73, 99418,16, 102533,80, 98252,95, 132515,63, 148960,92, 99289,55, 0,000, 0,000, 0,000, 22:33:27.450
255, 184289,66, 121474,84, 99128,46, 102269,22, 97958,38, 132657,69, 148945,20, 98994,04, 0,096, 0,986, 0,066, 22:33:27.450
0, 184343,69, 121343,26, 99014,72, 102117,56, 97842,57, 132696,48, 149199,67, 98879,51, 0,000, 0,000, 0,000, 22:33:27.451
1, 184181,56, 121556,45, 99237,63, 102278,63, 98073,44, 132575,03, 149373,81, 99103,36, 0,000, 0,000, 0,000, 22:33:27.451
2, 184070,20, 121857,98, 99528,31, 102571,50, 98370,52, 132465,22, 149230,61, 99406,85, 0,000, 0,000, 0,000, 22:33:27.451
3, 184200,77, 121844,56, 99494,00, 102606,48, 98334,80, 132524,36, 148971,22, 99379,27, 0,000, 0,000, 0,000, 22:33:27.452
4, 184445,56, 121560,34, 99203,72, 102360,73, 98041,05, 132667,20, 148952,59, 99078,84, 0,000, 0,000, 0,000, 22:33:27.452
5, 184498,58, 121321,84, 98973,03, 102108,82, 97815,12, 132702,38, 149202,69, 98842,83, 0,000, 0,000, 0,000, 22:33:27.452
6, 184313,23, 121479,73, 99144,20, 102203,75, 97990,52, 132579,61, 149378,47, 99011,95, 0,000, 0,000, 0,000, 22:33:27.453
7, 184196,94, 121814,05, 99473,04, 102524,97, 98321,21, 132470,58, 149240,33, 99340,67, 0,000, 0,000, 0,000, 22:33:27.453
8, 184335,50, 121843,84, 99489,96, 102604,43, 98330,15, 132531,02, 148983,78, 99365,77, 0,000, 0,000, 0,000, 22:33:27.453
9, 184583,50, 121594,31, 99241,20, 102394,55, 98075,63, 132677,41, 148965,00, 99113,29, 0,100, 0,984, 0,072, 22:33:27.454
10, 184660,30, 121454,70, 99111,27, 102235,83, 97947,64, 132718,16, 149217,63, 98976,38, 0,000, 0,000, 0,000, 22:33:27.454
11, 184471,83, 121582,11, 99252,67, 102321,48, 98092,15, 132597,89, 149393,44, 99130,50, 0,000, 0,000, 0,000, 22:33:27.454
12, 184281,19, 121792,21, 99460,45, 102523,29, 98301,02, 132484,55, 149250,58, 99344,76, 0,000, 0,000, 0,000, 22:33:27.454
13, 184379,98, 121806,99, 99456,07, 102573,70, 98295,21, 132538,89, 148990,28, 99321,16, 0,000, 0,000, 0,000, 22:33:27.455
14, 184620,47, 121525,02, 99167,55, 102332,02, 98009,27, 132682,09, 148968,03, 99043,48, 0,000, 0,000, 0,000, 22:33:27.455
15, 184665,59, 121349,41, 99006,73, 102137,27, 97852,29, 132723,67, 149217,73, 98897,66, 0,000, 0,000, 0,000, 22:33:27.456
16, 184440,16, 121489,23, 99158,08, 102231,49, 98008,80, 132604,58, 149396,28, 99040,09, 0,000, 0,000, 0,000, 22:33:27.456
17, 184257,53, 121758,46, 99423,98, 102483,20, 98275,43, 132489,36, 149259,16, 99295,61, 0,000, 0,000, 0,000, 22:33:27.456
18, 184389,56, 121776,91, 99425,67, 102541,26, 98274,94, 132541,39, 148998,06, 99288,50, 0,000, 0,000, 0,000, 22:33:27.457
19, 184671,81, 121568,61, 99212,73, 102362,25, 98061,01, 132684,56, 148972,58, 99083,16, 0,106, 0,978, 0,066, 22:33:27.457
20, 184754,17, 121383,73, 99038,72, 102163,36, 97889,73, 132722,63, 149217,80, 98920,23, 0,000, 0,000, 0,000, 22:33:27.457
21, 184582,78, 121566,20, 99239,64, 102292,45, 98086,52, 132604,69, 149397,41, 99114,59, 0,000, 0,000, 0,000, 22:33:27.458
22, 184419,86, 121817,52, 99490,43, 102533,39, 98334,10, 132489,36, 149261,70, 99352,00, 0,000, 0,000, 0,000, 22:33:27.458
23, 184513,27, 121829,43, 99479,77, 102584,94, 98322,39, 132541,91, 149000,23, 99346,55, 0,000, 0,000, 0,000, 22:33:27.458
24, 184743,33, 121604,51, 99244,49, 102389,45, 98085,91, 132688,89, 148972,53, 99118,41, 0,000, 0,000, 0,000, 22:33:27.459
25, 184801,89, 121423,63, 99077,34, 102203,59, 97925,54, 132733,81, 149217,17, 98954,09, 0,000, 0,000, 0,000, 22:33:27.459
26, 184609,72, 121587,41, 99257,23, 102321,86, 98111,19, 132616,56, 149399,33, 99132,38, 0,000, 0,000, 0,000, 22:33:27.459
27, 184435,86, 121838,02, 99500,71, 102566,14, 98355,63, 132501,05, 149266,48, 99376,92, 0,000, 0,000, 0,000, 22:33:27.460
28, 184517,64, 121819,26, 99462,55, 102583,95, 98313,54, 132548,88, 149001,38, 99333,63, 0,000, 0,000, 0,000, 22:33:27.460
29, 184755,28, 121561,66, 99199,61, 102361,53, 98046,75, 132692,56, 148969,16, 99067,22, 0,102, 0,982, 0,070, 22:33:27.460
30, 184806,94, 121351,51, 98997,55, 102134,30, 97845,52, 132736,19, 149213,94, 98874,26, 0,000, 0,000, 0,000, 22:33:27.461
31, 184571,78, 121488,19, 99143,75, 102214,52, 97995,92, 132618,97, 149399,69, 99025,06, 0,000, 0,000, 0,000, 22:33:27.461
32, 184363,81, 121780,26, 99434,15, 102488,35, 98280,64, 132503,94, 149272,05, 99308,44, 0,000, 0,000, 0,000, 22:33:27.461
33, 184456,45, 121806,85, 99449,37, 102558,98, 98289,11, 132552,20, 149007,19, 99322,63, 0,000, 0,000, 0,000, 22:33:27.461
34, 184683,66, 121535,51, 99177,21, 102328,12, 98013,05, 132694,28, 148970,48, 99044,55, 0,000, 0,000, 0,000, 22:33:27.462
35, 184737,75, 121349,13, 99000,63, 102127,15, 97839,15, 132740,50, 149213,00, 98864,47, 0,000, 0,000, 0,000, 22:33:27.462
36, 184502,83, 121510,09, 99173,32, 102240,20, 98018,16, 132624,88, 149400,02, 99047,41, 0,000, 0,000, 0,000, 22:33:27.463
37, 184275,06, 121788,10, 99446,51, 102506,48, 98295,10, 132507,08, 149273,08, 99324,20, 0,000, 0,000, 0,000, 22:33:27.463
38, 184333,56, 121798,52, 99439,20, 102555,79, 98284,53, 132553,80, 149008,45, 99314,03, 0,000, 0,000, 0,000, 22:33:27.464
39, 184551,73, 121568,97, 99202,70, 102359,85, 98044,43, 132698,95, 148972,88, 99073,32, 0,096, 0,984, 0,064, 22:33:27.464
40, 184615,41, 121433,83, 99082,98, 102212,67, 97924,46, 132750,53, 149222,34, 98951,91, 0,000, 0,000, 0,000, 22:33:27.464
41, 184405,47, 121615,91, 99272,77, 102342,69, 98124,49, 132637,61, 149417,73, 99145,27, 0,000, 0,000, 0,000, 22:33:27.465
42, 184205,03, 121932,47, 99581,96, 102643,41, 98434,71, 132522,53, 149296,86, 99464,05, 0,000, 0,000, 0,000, 22:33:27.465
43, 184229,58, 121877,58, 99509,20, 102633,30, 98355,23, 132567,86, 149029,31, 99381,51, 0,000, 0,000, 0,000, 22:33:27.466
44, 184410,06, 121629,34, 99260,77, 102416,09, 98098,18, 132711,41, 148986,06, 99120,44, 0,000, 0,000, 0,000, 22:33:27.466
45, 184464,25, 121473,61, 99117,42, 102242,15, 97956,02, 132761,48, 149228,67, 98974,28, 0,000, 0,000, 0,000, 22:33:27.467
46, 184268,33, 121657,66, 99317,05, 102376,46, 98162,17, 132651,23, 149421,98, 99183,54, 0,000, 0,000, 0,000, 22:33:27.467
47, 184040,34, 121909,65, 99557,30, 102615,00, 98406,86, 132535,06, 149298,14, 99428,36, 0,000, 0,000, 0,000, 22:33:27.468
48, 184081,50, 121964,23, 99590,20, 102701,59, 98437,62, 132584,08, 149035,45, 99459,13, 0,000, 0,000, 0,000, 22:33:27.468
49, 184279,58, 121705,65, 99330,66, 102488,24, 98167,90, 132730,05, 148992,23, 99181,82, 0,096, 0,984, 0,066, 22:33:27.468
50, 184313,00, 121473,55, 99110,72, 102253,21, 97955,84, 132780,91, 149232,47, 98981,86, 0,000, 0,000, 0,000, 22:33:27.469
51, 184080,59, 121634,92, 99286,42, 102357,84, 98136,16, 132669,95, 149428,31, 99174,42, 0,000, 0,000, 0,000, 22:33:27.469
52, 183880,27, 121977,42, 99628,12, 102680,16, 98473,05, 132551,77, 149311,44, 99501,78, 0,000, 0,000, 0,000, 22:33:27.470
53, 183907,78, 121919,46, 99553,82, 102679,38, 98394,30, 132593,56, 149045,27, 99418,48, 0,000, 0,000, 0,000, 22:33:27.470
54, 184075,91, 121643,51, 99278,53, 102432,21, 98118,14, 132737,55, 148996,55, 99136,91, 0,000, 0,000, 0,000, 22:33:27.470
55, 184156,89, 121561,27, 99205,33, 102329,63, 98048,92, 132793,00, 149237,58, 99078,91, 0,000, 0,000, 0,000, 22:33:27.471
56, 183963,83, 121674,65, 99328,13, 102407,60, 98177,69, 132682,55, 149435,59, 99224,09, 0,000, 0,000, 0,000, 22:33:27.471
57, 183722,22, 121880,84, 99528,45, 102595,04, 98387,80, 132560,38, 149316,42, 99427,57, 0,000, 0,000, 0,000, 22:33:27.472
58, 183782,88, 121962,45, 99594,07, 102706,44, 98450,52, 132603,98, 149051,63, 99488,02, 0,000, 0,000, 0,000, 22:33:27.472
59, 184003,11, 121764,30, 99393,58, 102549,33, 98243,05, 132750,42, 149004,05, 99273,21, 0,092, 0,988, 0,060, 22:33:27.472
60, 184077,47, 121599,86, 99246,91, 102381,20, 98096,84, 132805,81, 149241,14, 99116,86, 0,000, 0,000, 0,000, 22:33:27.473
61, 183885,81, 121660,52, 99319,50, 102399,28, 98174,85, 132695,50, 149435,67, 99206,52, 0,000, 0,000, 0,000, 22:33:27.473
62, 183673,48, 121853,10, 99506,34, 102575,20, 98365,48, 132572,28, 149317,83, 99403,97, 0,000, 0,000, 0,000, 22:33:27.473
63, 183748,92, 121911,44, 99550,29, 102662,70, 98402,88, 132611,91, 149051,50, 99433,92, 0,000, 0,000, 0,000, 22:33:27.474
64, 183979,06, 121683,12, 99315,93, 102471,66, 98166,66, 132759,41, 149001,55, 99192,48, 0,000, 0,000, 0,000, 22:33:27.474
65, 184040,97, 121492,55, 99140,29, 102267,61, 97989,55, 132817,06, 149236,89, 99004,79, 0,000, 0,000, 0,000, 22:33:27.474
66, 183860,22, 121685,93, 99347,31, 102408,42, 98202,90, 132711,98, 149439,22, 99220,73, 0,000, 0,000, 0,000, 22:33:27.475
67, 183676,97, 121969,20, 99626,48, 102685,32, 98484,91, 132592,06, 149329,30, 99507,37, 0,000, 0,000, 0,000, 22:33:27.475
68, 183728,19, 121956,68, 99597,80, 102719,31, 98454,20, 132627,00, 149061,28, 99477,09, 0,000, 0,000, 0,000, 22:33:27.475
69, 183921,45, 121674,02, 99317,16, 102479,30, 98162,27, 132769,02, 149006,30, 99199,12, 0,090, 0,986, 0,064, 22:33:27.476
70, 183975,38, 121488,68, 99138,45, 102272,70, 97989,40, 132824,75, 149239,28, 99021,78, 0,000, 0,000, 0,000, 22:33:27.476
71, 183857,08, 121722,81, 99387,66, 102456,10, 98250,62, 132721,08, 149446,13, 99276,63, 0,000, 0,000, 0,000, 22:33:27.476
72, 183739,41, 121970,02, 99627,87, 102699,53, 98488,91, 132602,23, 149340,34, 99522,03, 0,000, 0,000, 0,000, 22:33:27.477
73, 183827,33, 121952,43, 99589,55, 102713,48, 98446,27, 132639,30, 149073,34, 99478,58, 0,000, 0,000, 0,000, 22:33:27.477
74, 184074,41, 121747,89, 99385,35, 102539,49, 98234,88, 132785,94, 149018,00, 99272,70, 0,000, 0,000, 0,000, 22:33:27.477
75, 184182,08, 121568,63, 99219,39, 102355,92, 98070,91, 132844,81, 149252,27, 99105,20, 0,000, 0,000, 0,000, 22:33:27.478
76, 184008,67, 121674,00, 99336,70, 102414,52, 98192,87, 132737,69, 149453,34, 99212,77, 0,000, 0,000, 0,000, 22:33:27.479
77, 183830,06, 121928,90, 99584,70, 102651,12, 98445,75, 132615,27, 149344,66, 99460,97, 0,000, 0,000, 0,000, 22:33:27.479
78, 183880,39, 121952,59, 99593,58, 102714,13, 98447,12, 132651,72, 149075,92, 99477,87, 0,000, 0,000, 0,000, 22:33:27.479
79, 184045,36, 121695,84, 99333,12, 102501,66, 98185,04, 132795,42, 149016,53, 99226,12, 0,092, 0,980, 0,066, 22:33:27.480
80, 184064,11, 121530,81, 99181,59, 102325,81, 98036,63, 132857,69, 149250,39, 99061,50, 0,000, 0,000, 0,000, 22:33:27.480
81, 183855,78, 121682,20, 99340,83, 102422,26, 98205,72, 132753,91, 149458,67, 99225,49, 0,000, 0,000, 0,000, 22:33:27.480
82, 183650,11, 121934,35, 99588,48, 102659,84, 98456,93, 132631,84, 149355,11, 99487,77, 0,000, 0,000, 0,000, 22:33:27.481
83, 183669,17, 121976,46, 99613,20, 102732,39, 98475,88, 132667,61, 149086,31, 99509,31, 0,000, 0,000, 0,000, 22:33:27.481
84, 183803,19, 121738,41, 99364,20, 102528,50, 98213,14, 132810,91, 149023,08, 99250,08, 0,000, 0,000, 0,000, 22:33:27.482
85, 183755,23, 121549,97, 99187,96, 102324,52, 98036,05, 132871,34, 149254,13, 99057,67, 0,000, 0,000, 0,000, 22:33:27.482
86, 183494,36, 121684,62, 99341,56, 102417,34, 98198,72, 132768,83, 149465,28, 99214,30, 0,000, 0,000, 0,000, 22:33:27.482
87, 183235,13, 121935,31, 99590,38, 102654,80, 98452,57, 132643,55, 149367,00, 99470,69, 0,000, 0,000, 0,000, 22:33:27.482
88, 183236,91, 122017,81, 99656,88, 102770,16, 98514,10, 132679,84, 149102,36, 99542,69, 0,000, 0,000, 0,000, 22:33:27.483
89, 183358,44, 121813,38, 99445,03, 102603,96, 98296,58, 132827,92, 149036,38, 99325,94, 0,000, 0,000, 0,000, 22:33:27.919
90, 183343,48, 121696,70, 99334,16, 102475,32, 98186,20, 132891,69, 149264,67, 99197,58, 0,086, 0,984, 0,070, 22:33:27.920
91, 183081,67, 121799,08, 99451,91, 102535,30, 98309,41, 132788,11, 149475,56, 99315,97, 0,000, 0,000, 0,000, 22:33:27.920
92, 182829,53, 122062,27, 99712,85, 102782,88, 98569,54, 132661,17, 149377,34, 99591,30, 0,000, 0,000, 0,000, 22:33:27.921
93, 182789,23, 122082,01, 99720,07, 102838,56, 98570,27, 132692,36, 149107,92, 99603,23, 0,000, 0,000, 0,000, 22:33:27.921
94, 182878,81, 121862,69, 99500,04, 102653,38, 98339,83, 132838,05, 149039,38, 99365,91, 0,000, 0,000, 0,000, 22:33:27.922
95, 182828,02, 121657,79, 99302,23, 102440,50, 98147,27, 132902,66, 149266,05, 99170,62, 0,000, 0,000, 0,000, 22:33:27.922
96, 182558,41, 121765,66, 99415,33, 102490,37, 98273,69, 132799,67, 149480,02, 99283,16, 0,000, 0,000, 0,000, 22:33:27.923
97, 182333,52, 122082,41, 99729,77, 102782,10, 98586,84, 132672,59, 149388,84, 99603,64, 0,000, 0,000, 0,000, 22:33:27.923
98, 182342,19, 122107,98, 99742,94, 102850,07, 98585,77, 132701,59, 149119,55, 99609,96, 0,000, 0,000, 0,000, 22:33:27.924
99, 182440,20, 121850,06, 99478,49, 102628,79, 98319,35, 132844,75, 149045,72, 99339,51, 0,000, 0,000, 0,000, 22:33:27.924
100, 182407,19, 121677,17, 99316,69, 102445,73, 98163,20, 132910,20, 149271,05, 99195,16, 0,090, 0,980, 0,066, 22:33:27.924
101, 182155,58, 121795,86, 99450,87, 102522,91, 98302,25, 132811,02, 149485,16, 99338,16, 0,000, 0,000, 0,000, 22:33:27.925
102, 181912,97, 122086,77, 99744,27, 102790,44, 98596,00, 132685,84, 149394,77, 99626,66, 0,000, 0,000, 0,000, 22:33:27.925
103, 181927,77, 122174,16, 99816,63, 102917,80, 98668,22, 132717,75, 149129,92, 99687,84, 0,000, 0,000, 0,000, 22:33:27.925
104, 182081,50, 121977,06, 99617,88, 102763,91, 98463,50, 132865,98, 149057,05, 99479,20, 0,000, 0,000, 0,000, 22:33:27.926
105, 182074,47, 121739,91, 99391,90, 102528,88, 98237,10, 132934,67, 149278,36, 99258,82, 0,000, 0,000, 0,000, 22:33:27.926
106, 181821,95, 121840,31, 99500,59, 102576,58, 98354,78, 132836,33, 149492,58, 99376,39, 0,000, 0,000, 0,000, 22:33:27.927
107, 181588,34, 122114,75, 99766,54, 102830,34, 98622,89, 132709,64, 149402,61, 99652,14, 0,000, 0,000, 0,000, 22:33:27.927
108, 181585,41, 122134,91, 99774,72, 102895,56, 98625,68, 132734,94, 149133,61, 99657,28, 0,000, 0,000, 0,000, 22:33:27.927
109, 181691,48, 121868,39, 99499,81, 102663,86, 98347,56, 132875,78, 149055,80, 99370,58, 0,000, 0,000, 0,000, 22:33:27.928
110, 181701,48, 121712,51, 99356,54, 102496,16, 98206,74, 132944,70, 149279,61, 99230,52, 0,092, 0,978, 0,074, 22:33:27.928
111, 181490,17, 121826,05, 99469,55, 102550,49, 98324,34, 132846,16, 149497,42, 99347,87, 0,000, 0,000, 0,000, 22:33:27.929
112, 181290,92, 122098,14, 99717,34, 102779,11, 98574,52, 132716,86, 149409,58, 99586,77, 0,000, 0,000, 0,000, 22:33:27.929
113, 181306,22, 122115,27, 99745,93, 102848,69, 98596,65, 132740,59, 149140,84, 99624,83, 0,000, 0,000, 0,000, 22:33:27.930
114, 181434,72, 121861,02, 99509,07, 102656,06, 98359,36, 132884,09, 149061,28, 99389,20, 0,000, 0,000, 0,000, 22:33:27.930
115, 181422,36, 121617,58, 99273,68, 102405,63, 98122,97, 132950,77, 149276,88, 99137,60, 0,000, 0,000, 0,000, 22:33:27.931
116, 181205,70, 121722,99, 99390,13, 102458,74, 98247,73, 132849,78, 149493,27, 99258,77, 0,000, 0,000, 0,000, 22:33:27.931
117, 181015,48, 122013,70, 99682,92, 102736,19, 98546,02, 132720,08, 149411,30, 99568,05, 0,000, 0,000, 0,000, 22:33:27.932
118, 181056,30, 122070,20, 99727,42, 102829,82, 98586,45, 132745,00, 149144,33, 99613,59, 0,000, 0,000, 0,000, 22:33:27.932
119, 181235,83, 121869,82, 99517,96, 102666,99, 98372,13, 132888,78, 149064,06, 99394,52, 0,000, 0,000, 0,000, 22:33:27.932
120, 181275,03, 121684,99, 99346,02, 102471,81, 98199,44, 132960,38, 149283,81, 99215,91, 0,088, 0,982, 0,072, 22:33:27.933
121, 181106,20, 121786,05, 99459,47, 102531,59, 98314,39, 132862,52, 149506,48, 99332,49, 0,000, 0,000, 0,000, 22:33:27.933
122, 180909,09, 122041,99, 99715,87, 102759,66, 98572,15, 132731,67, 149426,53, 99587,16, 0,000, 0,000, 0,000, 22:33:27.933
123, 180950,75, 122123,91, 99783,68, 102876,11, 98638,54, 132754,83, 149159,52, 99647,41, 0,000, 0,000, 0,000, 22:33:27.934
124, 181125,25, 121921,23, 99571,19, 102707,85, 98425,88, 132896,66, 149072,89, 99438,57, 0,000, 0,000, 0,000, 22:33:27.934
125, 181162,92, 121685,98, 99344,05, 102478,81, 98198,95, 132966,70, 149287,25, 99217,42, 0,000, 0,000, 0,000, 22:33:27.934
126, 180949,17, 121767,16, 99433,12, 102515,91, 98291,28, 132866,77, 149507,69, 99314,07, 0,000, 0,000, 0,000, 22:33:27.934
127, 180708,28, 122012,27, 99669,69, 102735,09, 98531,47, 132733,42, 149429,31, 99562,67, 0,000, 0,000, 0,000, 22:33:27.935
128, 180718,55, 122122,41, 99763,16, 102869,90, 98622,58, 132755,70, 149162,75, 99654,71, 0,000, 0,000, 0,000, 22:33:27.935
129, 180891,64, 121945,50, 99579,99, 102732,68, 98429,46, 132899,98, 149076,52, 99454,04, 0,000, 0,000, 0,000, 22:33:27.935
130, 180897,09, 121686,20, 99332,47, 102476,13, 98182,41, 132972,13, 149288,77, 99203,70, 0,096, 0,982, 0,064, 22:33:27.936
131, 180675,14, 121743,55, 99404,55, 102481,65, 98259,36, 132874,91, 149509,06, 99276,63, 0,000, 0,000, 0,000, 22:33:27.936
132, 180492,13, 122040,32, 99700,80, 102748,46, 98555,05, 132741,89, 149432,38, 99570,83, 0,000, 0,000, 0,000, 22:33:27.936
133, 180533,31, 122094,74, 99741,23, 102836,30, 98596,65, 132759,28, 149164,03, 99605,80, 0,000, 0,000, 0,000, 22:33:27.937
134, 180697,23, 121878,76, 99518,32, 102659,70, 98376,02, 132900,66, 149075,25, 99384,95, 0,000, 0,000, 0,000, 22:33:27.937
135, 180714,27, 121634,01, 99280,59, 102413,39, 98137,14, 132972,00, 149287,31, 99136,64, 0,000, 0,000, 0,000, 22:33:27.937
136, 180525,33, 121718,72, 99384,15, 102453,06, 98243,16, 132877,66, 149514,39, 99252,63, 0,000, 0,000, 0,000, 22:33:27.937
137, 180363,94, 122028,85, 99694,56, 102739,01, 98556,08, 132745,69, 149443,44, 99569,55, 0,000, 0,000, 0,000, 22:33:27.938
138, 180442,19, 122167,10, 99819,06, 102909,38, 98674,61, 132763,92, 149177,17, 99697,85, 0,000, 0,000, 0,000, 22:33:27.938
139, 180634,09, 121963,59, 99609,27, 102757,13, 98457,42, 132905,77, 149083,92, 99480,08, 0,000, 0,000, 0,000, 22:33:27.938
140, 180646,84, 121689,80, 99345,72, 102486,57, 98196,53, 132977,86, 149291,92, 99215,99, 0,100, 0,986, 0,064, 22:33:27.939
141, 180466,33, 121802,95, 99471,00, 102548,19, 98329,39, 132883,86, 149520,63, 99345,14, 0,000, 0,000, 0,000, 22:33:27.939
142, 180278,39, 122073,60, 99747,43, 102799,00, 98602,70, 132751,31, 149452,92, 99609,45, 0,000, 0,000, 0,000, 22:33:27.939
143, 180302,42, 122149,84, 99808,05, 102902,16, 98660,55, 132766,41, 149184,95, 99669,91, 0,000, 0,000, 0,000, 22:33:27.940
144, 180467,48, 121921,72, 99568,39, 102719,54, 98414,05, 132909,59, 149089,42, 99430,59, 0,000, 0,000, 0,000, 22:33:27.940
145, 180509,16, 121699,05, 99359,83, 102493,77, 98204,98, 132985,75, 149295,75, 99217,52, 0,000, 0,000, 0,000, 22:33:27.940
146, 180335,17, 121787,81, 99469,04, 102540,59, 98317,30, 132895,00, 149523,58, 99332,11, 0,000, 0,000, 0,000, 22:33:27.940
147, 180135,41, 122020,88, 99694,56, 102748,59, 98548,37, 132759,09, 149454,11, 99567,32, 0,000, 0,000, 0,000, 22:33:27.941
148, 180147,52, 122097,88, 99749,44, 102843,95, 98600,02, 132770,72, 149183,70, 99621,70, 0,000, 0,000, 0,000, 22:33:27.941
149, 180287,89, 121850,15, 99493,71, 102642,47, 98339,16, 132911,36, 149082,36, 99373,15, 0,000, 0,000, 0,000, 22:33:27.941
150, 180322,20, 121671,00, 99324,98, 102446,29, 98170,87, 132990,94, 149287,86, 99195,77, 0,100, 0,980, 0,062, 22:33:27.942
151, 180155,97, 121759,91, 99418,16, 102489,98, 98270,07, 132902,84, 149518,66, 99281,82, 0,000, 0,000, 0,000, 22:33:27.942
152, 179981,45, 122040,30, 99691,86, 102734,42, 98548,26, 132766,92, 149453,69, 99557,88, 0,000, 0,000, 0,000, 22:33:27.942
153, 180035,11, 122141,57, 99781,18, 102874,52, 98630,20, 132777,72, 149185,11, 99652,48, 0,000, 0,000, 0,000, 22:33:27.943
154, 180187,70, 121904,95, 99542,22, 102687,20, 98387,52, 132917,81, 149082,69, 99406,54, 0,000, 0,000, 0,000, 22:33:27.943
155, 180228,05, 121698,61, 99346,68, 102478,14, 98198,23, 132997,61, 149288,92, 99224,22, 0,000, 0,000, 0,000, 22:33:27.943
156, 180060,75, 121776,41, 99432,65, 102507,98, 98298,03, 132907,06, 149522,08, 99318,25, 0,000, 0,000, 0,000, 22:33:27.944
157, 179880,48, 122015,06, 99688,62, 102731,70, 98545,64, 132770,94, 149461,80, 99560,99, 0,000, 0,000, 0,000, 22:33:27.944
158, 179913,25, 122085,02, 99754,06, 102834,41, 98607,94, 132780,17, 149195,56, 99635,60, 0,000, 0,000, 0,000, 22:33:27.944
159, 180100,61, 121908,89, 99566,70, 102698,75, 98417,99, 132920,55, 149095,03, 99447,13, 0,000, 0,000, 0,000, 22:33:27.945
160, 180161,84, 121711,19, 99374,27, 102495,10, 98227,58, 133003,00, 149298,16, 99238,27, 0,094, 0,980, 0,070, 22:33:27.945
161, 180023,25, 121819,91, 99493,73, 102554,12, 98352,01, 132917,55, 149532,34, 99347,16, 0,000, 0,000, 0,000, 22:33:27.945
162, 179869,56, 122103,48, 99775,03, 102813,59, 98635,77, 132783,53, 149475,30, 99642,80, 0,000, 0,000, 0,000, 22:33:27.946
163, 179888,16, 122109,56, 99764,08, 102861,52, 98617,70, 132789,73, 149206,00, 99653,82, 0,000, 0,000, 0,000, 22:33:27.946
164, 180020,97, 121853,33, 99499,46, 102645,51, 98347,91, 132926,36, 149095,39, 99379,56, 0,000, 0,000, 0,000, 22:33:27.946
165, 180032,81, 121597,73, 99256,52, 102390,52, 98104,17, 133005,64, 149296,13, 99122,95, 0,000, 0,000, 0,000, 22:33:27.947
166, 179863,16, 121703,52, 99377,22, 102439,02, 98230,08, 132918,64, 149532,03, 99232,55, 0,000, 0,000, 0,000, 22:33:27.947
167, 179705,73, 122020,11, 99692,11, 102727,79, 98549,80, 132783,39, 149478,20, 99557,82, 0,000, 0,000, 0,000, 22:33:27.947
168, 179757,95, 122138,58, 99794,88, 102881,84, 98651,81, 132793,63, 149213,31, 99670,85, 0,000, 0,000, 0,000, 22:33:27.948
169, 179928,66, 121927,89, 99579,05, 102722,34, 98428,98, 132934,89, 149104,03, 99450,75, 0,000, 0,000, 0,000, 22:33:27.948
170, 179963,45, 121681,84, 99336,09, 102470,74, 98187,61, 133017,89, 149302,63, 99196,23, 0,098, 0,982, 0,076, 22:33:27.948
171, 179822,91, 121791,12, 99449,28, 102520,77, 98306,57, 132936,06, 149541,66, 99311,13, 0,000, 0,000, 0,000, 22:33:27.948
172, 179672,69, 122091,93, 99740,59, 102785,59, 98596,70, 132801,08, 149491,38, 99617,77, 0,000, 0,000, 0,000, 22:33:27.949
173, 179707,22, 122171,55, 99811,63, 102903,18, 98666,54, 132805,61, 149224,73, 99691,15, 0,000, 0,000, 0,000, 22:33:27.949
174, 179874,25, 121947,78, 99598,68, 102738,27, 98449,66, 132944,58, 149112,94, 99464,43, 0,000, 0,000, 0,000, 22:33:27.949
175, 179913,44, 121679,12, 99347,11, 102474,01, 98198,20, 133028,17, 149307,22, 99211,45, 0,000, 0,000, 0,000, 22:33:27.950
176, 179772,42, 121772,45, 99452,38, 102510,30, 98310,14, 132944,89, 149545,73, 99331,98, 0,000, 0,000, 0,000, 22:33:27.950
177, 179622,95, 122059,43, 99735,94, 102766,57, 98599,15, 132807,16, 149497,09, 99613,54, 0,000, 0,000, 0,000, 22:33:27.950
178, 179661,08, 122125,59, 99789,20, 102873,43, 98648,44, 132807,94, 149228,94, 99649,84, 0,000, 0,000, 0,000, 22:33:27.951
179, 179819,58, 121885,98, 99539,76, 102678,95, 98391,50, 132942,38, 149110,03, 99404,87, 0,000, 0,000, 0,000, 22:33:27.951
180, 179870,34, 121641,66, 99305,83, 102437,55, 98160,72, 133026,09, 149302,61, 99178,42, 0,096, 0,980, 0,070, 22:33:27.951
181, 179728,42, 121724,78, 99404,84, 102473,24, 98264,70, 132943,72, 149544,91, 99270,33, 0,000, 0,000, 0,000, 22:33:27.952
182, 179552,97, 121961,17, 99631,27, 102681,36, 98493,09, 132803,41, 149498,05, 99502,12, 0,000, 0,000, 0,000, 22:33:27.952
183, 179591,88, 122071,55, 99724,49, 102810,00, 98580,64, 132803,06, 149231,50, 99604,69, 0,000, 0,000, 0,000, 22:33:27.952
184, 179791,09, 121914,21, 99556,99, 102693,14, 98409,20, 132942,11, 149118,61, 99432,96, 0,000, 0,000, 0,000, 22:33:27.953
185, 179868,58, 121683,09, 99337,09, 102466,85, 98190,95, 133029,17, 149315,19, 99207,59, 0,000, 0,000, 0,000, 22:33:27.953
186, 179744,55, 121780,70, 99459,20, 102519,65, 98315,62, 132948,94, 149558,47, 99333,07, 0,000, 0,000, 0,000, 22:33:27.953
187, 179598,70, 122070,96, 99749,13, 102783,42, 98610,20, 132810,44, 149517,25, 99621,21, 0,000, 0,000, 0,000, 22:33:27.954
188, 179632,53, 122169,22, 99828,92, 102907,83, 98685,36, 132807,44, 149252,27, 99690,59, 0,000, 0,000, 0,000, 22:33:27.954
189, 179786,16, 121964,44, 99615,51, 102742,61, 98463,41, 132942,72, 149133,14, 99467,92, 0,000, 0,000, 0,000, 22:33:27.954
190, 179829,14, 121716,53, 99380,70, 102496,20, 98221,61, 133028,53, 149322,81, 99230,14, 0,098, 0,984, 0,066, 22:33:27.955
191, 179664,56, 121755,24, 99430,26, 102485,96, 98274,41, 132945,83, 149564,75, 99277,64, 0,000, 0,000, 0,000, 22:33:27.955
192, 179485,70, 122027,98, 99705,25, 102724,16, 98556,70, 132806,81, 149524,31, 99549,59, 0,000, 0,000, 0,000, 22:33:27.955
193, 179494,41, 122105,70, 99772,91, 102840,41, 98621,88, 132804,45, 149260,81, 99633,26, 0,000, 0,000, 0,000, 22:33:27.955
194, 179637,05, 121894,88, 99551,90, 102670,45, 98399,44, 132939,19, 149139,11, 99413,52, 0,000, 0,000, 0,000, 22:33:27.956
195, 179713,34, 121713,38, 99377,77, 102489,02, 98227,95, 133028,80, 149330,19, 99217,58, 0,000, 0,000, 0,000, 22:33:27.956
196, 179558,17, 121751,53, 99432,47, 102486,70, 98288,35, 132950,03, 149573,53, 99283,49, 0,000, 0,000, 0,000, 22:33:27.956
197, 179387,11, 122033,66, 99715,17, 102740,55, 98570,50, 132812,70, 149537,66, 99591,75, 0,000, 0,000, 0,000, 22:33:27.957
198, 179418,77, 122157,84, 99819,53, 102895,38, 98667,77, 132811,11, 149274,47, 99696,42, 0,000, 0,000, 0,000, 22:33:27.957
199, 179590,88, 121951,49, 99599,77, 102739,03, 98443,13, 132947,52, 149148,95, 99464,77, 0,000, 0,000, 0,000, 22:33:27.957
200, 179650,13, 121699,01, 99356,02, 102486,84, 98197,20, 133037,48, 149334,19, 99221,42, 0,102, 0,980, 0,072, 22:33:27.958
201, 179514,25, 121750,20, 99423,08, 102491,26, 98269,42, 132960,59, 149578,50, 99296,28, 0,000, 0,000, 0,000, 22:33:27.958
202, 179363,78, 122046,06, 99718,02, 102753,76, 98566,92, 132819,73, 149544,88, 99591,95, 0,000, 0,000, 0,000, 22:33:27.958
203, 179385,55, 122143,96, 99801,16, 102880,13, 98643,61, 132812,14, 149280,28, 99661,33, 0,000, 0,000, 0,000, 22:33:27.959
204, 179557,61, 121946,04, 99596,33, 102725,13, 98436,07, 132946,70, 149150,70, 99448,41, 0,000, 0,000, 0,000, 22:33:27.959
205, 179625,92, 121691,70, 99346,20, 102473,55, 98188,53, 133036,50, 149334,61, 99197,35, 0,000, 0,000, 0,000, 22:33:27.959
206, 179476,80, 121735,71, 99404,51, 102469,53, 98252,70, 132958,97, 149580,50, 99266,84, 0,000, 0,000, 0,000, 22:33:27.960
207, 179322,19, 122037,93, 99709,30, 102744,69, 98562,07, 132819,88, 149551,36, 99588,93, 0,000, 0,000, 0,000, 22:33:27.960
208, 179369,48, 122152,16, 99812,36, 102889,91, 98661,06, 132814,55, 149290,73, 99693,49, 0,000, 0,000, 0,000, 22:33:27.960
209, 179566,89, 121991,66, 99640,25, 102772,05, 98487,51, 132951,09, 149161,48, 99518,91, 0,000, 0,000, 0,000, 22:33:28.398
210, 179634,39, 121730,62, 99384,16, 102516,81, 98230,80, 133040,86, 149341,66, 99249,05, 0,098, 0,978, 0,074, 22:33:28.398
211, 179480,41, 121735,89, 99402,79, 102476,62, 98255,31, 132961,66, 149583,86, 99257,92, 0,000, 0,000, 0,000, 22:33:28.399
212, 179318,27, 122020,91, 99695,13, 102735,88, 98546,49, 132818,17, 149553,08, 99559,07, 0,000, 0,000, 0,000, 22:33:28.399
213, 179325,64, 122063,63, 99728,20, 102818,49, 98571,03, 132805,19, 149289,95, 99613,92, 0,000, 0,000, 0,000, 22:33:28.399
214, 179484,19, 121866,71, 99523,82, 102659,73, 98363,61, 132938,25, 149156,61, 99403,30, 0,000, 0,000, 0,000, 22:33:28.400
215, 179583,44, 121700,38, 99362,09, 102493,70, 98205,72, 133033,41, 149339,06, 99233,54, 0,000, 0,000, 0,000, 22:33:28.400
216, 179481,38, 121765,46, 99433,56, 102521,44, 98286,49, 132961,30, 149590,50, 99313,80, 0,000, 0,000, 0,000, 22:33:28.400
217, 179335,28, 122051,59, 99723,60, 102773,72, 98576,71, 132822,38, 149565,59, 99606,92, 0,000, 0,000, 0,000, 22:33:28.401
218, 179369,97, 122144,75, 99799,66, 102895,29, 98648,73, 132813,86, 149303,30, 99693,74, 0,000, 0,000, 0,000, 22:33:28.401
219, 179548,97, 121959,25, 99601,78, 102747,34, 98448,03, 132948,94, 149165,72, 99493,22, 0,000, 0,000, 0,000, 22:33:28.401
220, 179631,31, 121713,70, 99363,65, 102507,82, 98208,58, 133040,66, 149341,70, 99241,81, 0,000, 0,000, 0,000, 22:33:28.402
221, 179487,72, 121733,81, 99397,76, 102483,77, 98247,49, 132965,92, 149588,13, 99278,98, 0,100, 0,984, 0,070, 22:33:28.402
222, 179338,56, 122029,41, 99695,02, 102741,98, 98545,17, 132825,55, 149564,48, 99574,65, 0,000, 0,000, 0,000, 22:33:28.402
223, 179360,38, 122106,86, 99758,23, 102853,94, 98604,63, 132811,33, 149302,20, 99635,80, 0,000, 0,000, 0,000, 22:33:28.403
224, 179534,41, 121932,63, 99578,96, 102726,71, 98423,18, 132944,14, 149163,00, 99454,02, 0,000, 0,000, 0,000, 22:33:28.403
225, 179610,09, 121674,02, 99329,41, 102473,09, 98168,63, 133038,42, 149337,88, 99189,08, 0,000, 0,000, 0,000, 22:33:28.403
226, 179493,13, 121739,35, 99411,77, 102489,59, 98252,25, 132965,97, 149590,30, 99285,41, 0,000, 0,000, 0,000, 22:33:28.404
227, 179342,70, 122004,67, 99675,55, 102729,20, 98524,63, 132821,97, 149569,52, 99560,91, 0,000, 0,000, 0,000, 22:33:28.404
228, 179374,64, 122123,11, 99775,91, 102870,13, 98625,10, 132806,13, 149306,72, 99652,61, 0,000, 0,000, 0,000, 22:33:28.404
229, 179543,47, 121905,92, 99548,36, 102700,36, 98392,02, 132934,83, 149161,88, 99407,95, 0,000, 0,000, 0,000, 22:33:28.405
230, 179622,66, 121683,49, 99332,91, 102476,35, 98178,83, 133030,45, 149331,86, 99199,70, 0,000, 0,000, 0,000, 22:33:28.405
231, 179494,98, 121719,23, 99383,38, 102472,53, 98236,34, 132960,91, 149582,61, 99261,81, 0,100, 0,984, 0,068, 22:33:28.405
232, 179323,69, 121994,38, 99663,59, 102711,09, 98516,59, 132820,19, 149565,47, 99532,98, 0,000, 0,000, 0,000, 22:33:28.406
233, 179380,64, 122183,30, 99841,38, 102925,38, 98684,94, 132808,78, 149308,58, 99708,49, 0,000, 0,000, 0,000, 22:33:28.406
234, 179550,53, 121964,39, 99621,16, 102765,52, 98455,03, 132942,63, 149165,13, 99494,34, 0,000, 0,000, 0,000, 22:33:28.406
235, 179641,02, 121756,52, 99420,31, 102559,37, 98256,09, 133043,09, 149335,27, 99289,28, 0,000, 0,000, 0,000, 22:33:28.407
236, 179511,56, 121761,99, 99434,62, 102521,15, 98275,74, 132972,67, 149584,78, 99289,02, 0,000, 0,000, 0,000, 22:33:28.407
237, 179328,13, 121990,52, 99659,30, 102715,60, 98507,94, 132826,91, 149566,17, 99527,46, 0,000, 0,000, 0,000, 22:33:28.407
238, 179347,13, 122119,47, 99777,60, 102876,20, 98627,25, 132809,33, 149306,25, 99655,72, 0,000, 0,000, 0,000, 22:33:28.407
239, 179513,42, 121942,73, 99589,87, 102740,86, 98437,98, 132940,19, 149159,58, 99457,23, 0,000, 0,000, 0,000, 22:33:28.408
240, 179629,78, 121770,58, 99427,46, 102570,66, 98275,97, 133041,88, 149330,23, 99284,66, 0,000, 0,000, 0,000, 22:33:28.408
241, 179517,02, 121770,02, 99442,35, 102535,16, 98292,87, 132974,59, 149583,14, 99306,36, 0,092, 0,972, 0,072, 22:33:28.409
242, 179338,08, 121992,06, 99664,95, 102724,57, 98519,80, 132831,03, 149571,09, 99549,55, 0,000, 0,000, 0,000, 22:33:28.409
243, 179345,77, 122109,54, 99770,83, 102866,37, 98624,37, 132812,03, 149310,92, 99651,56, 0,000, 0,000, 0,000, 22:33:28.409
244, 179507,03, 121927,78, 99583,90, 102724,68, 98423,98, 132939,83, 149159,63, 99443,38, 0,000, 0,000, 0,000, 22:33:28.410
245, 179583,50, 121658,71, 99317,41, 102461,45, 98155,05, 133036,53, 149324,27, 99160,76, 0,000, 0,000, 0,000, 22:33:28.410
246, 179471,77, 121709,47, 99385,04, 102463,03, 98229,61, 132969,78, 149581,31, 99243,17, 0,000, 0,000, 0,000, 22:33:28.410
247, 179321,06, 121980,62, 99657,26, 102702,38, 98503,84, 132827,89, 149574,16, 99530,80, 0,000, 0,000, 0,000, 22:33:28.410
248, 179335,27, 122097,43, 99758,58, 102841,09, 98606,64, 132808,81, 149315,95, 99620,07, 0,000, 0,000, 0,000, 22:33:28.411
249, 179516,11, 121933,86, 99581,17, 102723,98, 98431,09, 132938,66, 149163,92, 99443,47, 0,000, 0,000, 0,000, 22:33:28.411
250, 179595,23, 121660,16, 99318,43, 102461,51, 98162,94, 133037,53, 149325,94, 99187,00, 0,000, 0,000, 0,000, 22:33:28.411
251, 179471,05, 121680,39, 99353,14, 102434,45, 98203,91, 132971,22, 149579,66, 99217,67, 0,090, 0,976, 0,068, 22:33:28.412
252, 179308,42, 121946,60, 99623,76, 102674,26, 98482,99, 132827,45, 149571,34, 99496,87, 0,000, 0,000, 0,000, 22:33:28.412
253, 179335,75, 122085,88, 99740,45, 102838,12, 98597,27, 132804,89, 149314,97, 99624,38, 0,000, 0,000, 0,000, 22:33:28.412
254, 179516,33, 121927,48, 99567,43, 102716,84, 98418,66, 132933,86, 149161,52, 99453,39, 0,000, 0,000, 0,000, 22:33:28.413
255, 179614,03, 121699,61, 99345,50, 102494,10, 98188,82, 133033,98, 149322,66, 99207,50, 0,000, 0,000, 0,000, 22:33:28.413
0, 179473,45, 121682,71, 99346,13, 102429,03, 98192,44, 132969,25, 149578,38, 99201,15, 0,000, 0,000, 0,000, 22:33:28.413
1, 179334,36, 121995,34, 99667,30, 102704,43, 98517,63, 132827,34, 149577,42, 99536,96, 0,000, 0,000, 0,000, 22:33:28.413
2, 179346,25, 122086,48, 99744,73, 102828,26, 98597,12, 132801,83, 149321,19, 99622,44, 0,000, 0,000, 0,000, 22:33:28.413
3, 179513,77, 121904,22, 99555,20, 102689,01, 98396,94, 132927,97, 149165,13, 99422,45, 0,000, 0,000, 0,000, 22:33:28.414
4, 179599,77, 121665,95, 99327,28, 102459,59, 98165,10, 133029,73, 149322,55, 99182,24, 0,000, 0,000, 0,000, 22:33:28.414
5, 179483,88, 121701,53, 99376,26, 102455,88, 98223,04, 132965,56, 149580,42, 99232,38, 0,088, 0,984, 0,070, 22:33:28.414
6, 179300,69, 121922,13, 99598,84, 102649,91, 98448,55, 132818,11, 149579,28, 99463,70, 0,000, 0,000, 0,000, 22:33:28.414
7, 179324,59, 122087,41, 99745,75, 102827,77, 98591,48, 132793,19, 149323,70, 99618,19, 0,000, 0,000, 0,000, 22:33:28.414
8, 179519,92, 121934,64, 99579,99, 102724,88, 98422,55, 132923,61, 149168,00, 99456,77, 0,000, 0,000, 0,000, 22:33:28.415
9, 179613,56, 121677,06, 99329,90, 102481,65, 98171,63, 133026,45, 149325,56, 99209,76, 0,000, 0,000, 0,000, 22:33:28.415
10, 179495,03, 121694,31, 99357,93, 102453,84, 98212,98, 132966,98, 149586,16, 99244,20, 0,000, 0,000, 0,000, 22:33:28.415
11, 179358,84, 122017,23, 99683,84, 102737,17, 98541,71, 132826,22, 149592,20, 99560,14, 0,000, 0,000, 0,000, 22:33:28.415
12, 179404,66, 122177,76, 99838,66, 102925,17, 98684,54, 132800,77, 149338,48, 99715,04, 0,000, 0,000, 0,000, 22:33:28.416
13, 179588,95, 121998,45, 99648,39, 102793,61, 98491,23, 132930,31, 149178,06, 99523,64, 0,000, 0,000, 0,000, 22:33:28.416
14, 179658,75, 121691,03, 99347,38, 102499,73, 98186,90, 133034,20, 149329,30, 99218,12, 0,000, 0,000, 0,000, 22:33:28.416
15, 179521,34, 121690,54, 99368,88, 102450,18, 98212,53, 132974,84, 149586,72, 99226,77, 0,088, 0,988, 0,074, 22:33:28.416
16, 179386,75, 122021,61, 99702,48, 102743,50, 98551,38, 132834,05, 149595,14, 99566,53, 0,000, 0,000, 0,000, 22:33:28.417
17, 179383,41, 122095,20, 99754,22, 102846,97, 98603,73, 132804,22, 149339,75, 99640,36, 0,000, 0,000, 0,000, 22:33:28.417
18, 179548,72, 121946,48, 99594,52, 102735,27, 98444,43, 132929,53, 149176,78, 99477,62, 0,000, 0,000, 0,000, 22:33:28.417
19, 179648,08, 121720,58, 99378,87, 102524,27, 98229,38, 133037,84, 149330,80, 99247,51, 0,000, 0,000, 0,000, 22:33:28.417
20, 179494,16, 121653,86, 99324,17, 102423,83, 98180,50, 132978,39, 149589,56, 99192,34, 0,000, 0,000, 0,000, 22:33:28.417
21, 179303,61, 121907,70, 99581,91, 102632,39, 98440,01, 132830,91, 149598,64, 99451,94, 0,000, 0,000, 0,000, 22:33:28.418
22, 179325,41, 122078,66, 99735,41, 102825,27, 98593,63, 132801,16, 149347,80, 99610,45, 0,000, 0,000, 0,000, 22:33:28.418
23, 179491,03, 121892,73, 99540,45, 102690,52, 98396,27, 132927,67, 149182,67, 99426,52, 0,000, 0,000, 0,000, 22:33:28.418
24, 179602,61, 121686,55, 99342,13, 102485,00, 98192,69, 133036,45, 149334,23, 99228,06, 0,000, 0,000, 0,000, 22:33:28.418
25, 179549,50, 121786,49, 99455,52, 102543,01, 98309,54, 132984,06, 149599,64, 99341,52, 0,090, 0,988, 0,072, 22:33:28.419
26, 179393,58, 122012,98, 99680,35, 102745,73, 98543,56, 132841,44, 149612,25, 99567,14, 0,000, 0,000, 0,000, 22:33:28.419
27, 179376,00, 122107,13, 99764,23, 102861,34, 98622,62, 132808,92, 149359,47, 99642,09, 0,000, 0,000, 0,000, 22:33:28.419
28, 179534,92, 121952,77, 99599,21, 102745,96, 98451,85, 132932,44, 149191,03, 99471,95, 0,000, 0,000, 0,000, 22:33:28.419
29, 179623,78, 121701,47, 99352,09, 102506,20, 98204,62, 133041,78, 149337,14, 99223,70, 0,000, 0,000, 0,000, 22:33:28.420
30, 179502,06, 121663,63, 99327,55, 102430,98, 98185,76, 132985,56, 149596,80, 99194,38, 0,000, 0,000, 0,000, 22:33:28.420
31, 179317,95, 121905,31, 99568,93, 102627,18, 98429,05, 132839,59, 149608,41, 99449,30, 0,000, 0,000, 0,000, 22:33:28.420
32, 179329,89, 122081,94, 99730,44, 102822,34, 98586,26, 132810,16, 149358,13, 99621,05, 0,000, 0,000, 0,000, 22:33:28.420
33, 179516,59, 121954,42, 99593,07, 102737,73, 98445,70, 132935,16, 149188,48, 99470,16, 0,000, 0,000, 0,000, 22:33:28.420
34, 179644,19, 121744,00, 99387,45, 102533,62, 98241,57, 133046,25, 149333,63, 99253,99, 0,000, 0,000, 0,000, 22:33:28.421
35, 179547,52, 121723,35, 99390,41, 102480,24, 98239,06, 132993,08, 149595,28, 99262,02, 0,096, 0,990, 0,070, 22:33:28.421
36, 179373,95, 121964,57, 99632,88, 102681,85, 98481,98, 132846,05, 149609,03, 99510,37, 0,000, 0,000, 0,000, 22:33:28.421
37, 179377,58, 122118,28, 99776,15, 102853,59, 98623,91, 132812,03, 149359,22, 99661,58, 0,000, 0,000, 0,000, 22:33:28.421
38, 179561,23, 122005,80, 99654,98, 102780,45, 98500,29, 132936,91, 149191,56, 99525,92, 0,000, 0,000, 0,000, 22:33:28.421
39, 179672,66, 121757,70, 99412,69, 102556,82, 98259,30, 133047,95, 149336,16, 99278,96, 0,000, 0,000, 0,000, 22:33:28.422
40, 179568,28, 121734,34, 99401,31, 102497,03, 98256,77, 132995,31, 149601,03, 99267,27, 0,000, 0,000, 0,000, 22:33:28.422
41, 179407,25, 121969,20, 99637,28, 102694,73, 98497,20, 132849,91, 149621,03, 99511,51, 0,000, 0,000, 0,000, 22:33:28.422
42, 179422,25, 122135,74, 99785,85, 102883,40, 98644,37, 132816,66, 149374,28, 99675,88, 0,000, 0,000, 0,000, 22:33:28.422
43, 179580,41, 121964,14, 99594,59, 102751,44, 98446,27, 132939,44, 149199,98, 99476,16, 0,000, 0,000, 0,000, 22:33:28.422
44, 179687,81, 121746,02, 99382,47, 102530,20, 98228,36, 133048,22, 149337,45, 99248,20, 0,000, 0,000, 0,000, 22:33:28.423
45, 179608,58, 121772,23, 99432,76, 102525,17, 98281,98, 132998,89, 149603,59, 99287,48, 0,098, 0,982, 0,068, 22:33:28.423
46, 179447,86, 122015,53, 99686,45, 102737,47, 98538,06, 132854,88, 149627,83, 99552,86, 0,000, 0,000, 0,000, 22:33:28.423
47, 179465,75, 122183,66, 99842,16, 102923,21, 98691,80, 132817,61, 149379,70, 99705,16, 0,000, 0,000, 0,000, 22:33:28.423
48, 179649,06, 122053,06, 99699,05, 102838,20, 98543,79, 132941,11, 149204,75, 99556,48, 0,000, 0,000, 0,000, 22:33:28.424
49, 179748,39, 121780,21, 99432,94, 102580,73, 98277,69, 133054,30, 149343,31, 99299,66, 0,000, 0,000, 0,000, 22:33:28.424
50, 179634,22, 121740,43, 99407,99, 102503,84, 98258,20, 133002,86, 149607,22, 99283,85, 0,000, 0,000, 0,000, 22:33:28.424
51, 179445,52, 121962,70, 99626,30, 102679,24, 98484,22, 132854,45, 149632,05, 99517,54, 0,000, 0,000, 0,000, 22:33:28.424
52, 179444,63, 122115,60, 99761,17, 102846,99, 98619,05, 132812,25, 149384,39, 99650,02, 0,000, 0,000, 0,000, 22:33:28.425
53, 179610,55, 121967,07, 99602,01, 102739,41, 98453,42, 132931,83, 149204,42, 99483,50, 0,000, 0,000, 0,000, 22:33:28.425
54, 179719,86, 121723,48, 99362,17, 102508,90, 98212,42, 133042,36, 149338,53, 99236,02, 0,000, 0,000, 0,000, 22:33:28.425
55, 179628,27, 121731,53, 99394,49, 102482,61, 98246,15, 132996,25, 149605,08, 99259,69, 0,096, 0,980, 0,068, 22:33:28.426
56, 179458,19, 121967,27, 99640,03, 102686,93, 98492,91, 132853,00, 149633,09, 99497,18, 0,000, 0,000, 0,000, 22:33:28.426
57, 179462,22, 122113,01, 99772,23, 102853,98, 98618,17, 132811,36, 149385,11, 99633,70, 0,000, 0,000, 0,000, 22:33:28.427
58, 179610,75, 121944,45, 99589,71, 102727,05, 98429,39, 132929,80, 149203,00, 99447,87, 0,000, 0,000, 0,000, 22:33:28.427
59, 179728,38, 121728,96, 99378,16, 102523,38, 98218,68, 133044,64, 149335,95, 99233,09, 0,000, 0,000, 0,000, 22:33:28.427
60, 179626,44, 121694,09, 99363,52, 102452,97, 98213,36, 132997,13, 149603,69, 99229,18, 0,000, 0,000, 0,000, 22:33:28.427
61, 179480,61, 121986,90, 99658,16, 102696,09, 98513,68, 132852,64, 149640,88, 99515,15, 0,000, 0,000, 0,000, 22:33:28.428
62, 179501,11, 122163,55, 99816,30, 102892,54, 98671,13, 132811,77, 149398,97, 99676,44, 0,000, 0,000, 0,000, 22:33:28.428
63, 179651,06, 121963,83, 99604,78, 102744,38, 98452,62, 132930,67, 149215,45, 99473,91, 0,000, 0,000, 0,000, 22:33:28.428
64, 179754,69, 121715,23, 99360,97, 102504,74, 98202,85, 133045,38, 149344,69, 99237,49, 0,000, 0,000, 0,000, 22:33:28.428
65, 179671,67, 121726,95, 99385,20, 102471,79, 98238,13, 133001,48, 149612,02, 99260,92, 0,096, 0,978, 0,062, 22:33:28.429
66, 179515,25, 121987,08, 99649,23, 102697,23, 98510,17, 132858,45, 149646,78, 99516,09, 0,000, 0,000, 0,000, 22:33:28.429
67, 179495,77, 122110,30, 99763,59, 102845,83, 98619,42, 132815,48, 149401,67, 99632,88, 0,000, 0,000, 0,000, 22:33:28.430
68, 179654,55, 121989,42, 99636,43, 102762,56, 98481,58, 132935,23, 149215,69, 99498,30, 0,000, 0,000, 0,000, 22:33:28.430
69, 179776,61, 121757,48, 99406,77, 102546,42, 98250,06, 133051,81, 149343,13, 99262,35, 0,000, 0,000, 0,000, 22:33:28.430
70, 179698,14, 121756,45, 99423,04, 102505,25, 98264,21, 133007,83, 149609,67, 99278,31, 0,000, 0,000, 0,000, 22:33:28.430
71, 179533,42, 121993,20, 99658,05, 102706,24, 98505,77, 132861,11, 149648,02, 99512,00, 0,000, 0,000, 0,000, 22:33:28.431
72, 179508,48, 122115,58, 99770,00, 102847,55, 98620,68, 132813,22, 149405,14, 99620,52, 0,000, 0,000, 0,000, 22:33:28.431
73, 179693,84, 122023,40, 99667,01, 102799,16, 98515,69, 132932,34, 149219,81, 99530,21, 0,000, 0,000, 0,000, 22:33:28.878
74, 179796,23, 121737,56, 99377,71, 102530,76, 98230,64, 133047,66, 149343,53, 99243,84, 0,000, 0,000, 0,000, 22:33:28.878
75, 179680,23, 121668,56, 99324,24, 102420,31, 98182,91, 133003,36, 149609,70, 99183,07, 0,098, 0,980, 0,066, 22:33:28.878
76, 179507,38, 121907,41, 99571,01, 102622,02, 98432,90, 132855,05, 149648,59, 99435,94, 0,000, 0,000, 0,000, 22:33:28.879
77, 179473,73, 122049,53, 99698,03, 102778,39, 98559,84, 132805,09, 149407,25, 99578,20, 0,000, 0,000, 0,000, 22:33:28.879
78, 179639,36, 121937,45, 99576,93, 102707,52, 98430,69, 132922,59, 149220,67, 99462,82, 0,000, 0,000, 0,000, 22:33:28.879
79, 179769,89, 121711,50, 99359,60, 102497,52, 98210,32, 133040,17, 149343,38, 99236,67, 0,000, 0,000, 0,000, 22:33:28.880
80, 179701,50, 121721,59, 99388,37, 102469,65, 98244,14, 133001,56, 149615,06, 99258,80, 0,000, 0,000, 0,000, 22:33:28.880
81, 179535,95, 121956,74, 99632,70, 102674,30, 98493,47, 132857,52, 149660,19, 99515,44, 0,000, 0,000, 0,000, 22:33:28.880
82, 179522,88, 122116,47, 99774,09, 102846,25, 98634,18, 132810,80, 149421,34, 99668,55, 0,000, 0,000, 0,000, 22:33:28.880
83, 179685,78, 121964,68, 99604,80, 102743,05, 98460,15, 132926,56, 149230,08, 99483,43, 0,000, 0,000, 0,000, 22:33:28.881
84, 179788,16, 121683,83, 99326,77, 102471,75, 98185,20, 133039,39, 149345,67, 99208,55, 0,000, 0,000, 0,000, 22:33:28.881
85, 179711,13, 121669,84, 99329,09, 102423,71, 98194,90, 133000,47, 149616,00, 99223,44, 0,000, 0,000, 0,000, 22:33:28.881
86, 179542,03, 121902,14, 99563,48, 102621,08, 98437,86, 132855,64, 149663,00, 99456,79, 0,098, 0,980, 0,070, 22:33:28.881
87, 179521,31, 122060,77, 99708,38, 102792,23, 98580,78, 132804,34, 149425,16, 99600,40, 0,000, 0,000, 0,000, 22:33:28.881
88, 179689,89, 121969,82, 99606,26, 102738,52, 98472,22, 132920,17, 149234,33, 99491,73, 0,000, 0,000, 0,000, 22:33:28.882
89, 179810,13, 121708,38, 99363,98, 102503,40, 98217,65, 133039,34, 149351,28, 99226,01, 0,000, 0,000, 0,000, 22:33:28.882
90, 179730,61, 121692,13, 99371,65, 102449,80, 98226,10, 133001,50, 149619,17, 99223,75, 0,000, 0,000, 0,000, 22:33:28.882
91, 179562,53, 121916,52, 99593,47, 102636,63, 98456,26, 132855,84, 149667,13, 99467,80, 0,000, 0,000, 0,000, 22:33:28.883
92, 179539,36, 122075,16, 99733,57, 102800,03, 98595,64, 132802,30, 149429,03, 99625,30, 0,000, 0,000, 0,000, 22:33:28.883
93, 179708,75, 121972,17, 99617,05, 102741,49, 98473,60, 132917,06, 149233,55, 99500,48, 0,000, 0,000, 0,000, 22:33:28.883
94, 179830,27, 121726,30, 99377,15, 102516,27, 98228,47, 133036,53, 149347,33, 99248,96, 0,000, 0,000, 0,000, 22:33:28.884
95, 179739,11, 121663,80, 99325,31, 102422,41, 98176,26, 132998,63, 149617,52, 99201,91, 0,000, 0,000, 0,000, 22:33:28.884
96, 179582,33, 121940,67, 99603,59, 102649,00, 98462,83, 132854,63, 149671,81, 99479,09, 0,094, 0,978, 0,076, 22:33:28.884
97, 179593,48, 122141,62, 99790,43, 102865,07, 98649,89, 132804,03, 149437,45, 99678,92, 0,000, 0,000, 0,000, 22:33:28.884
98, 179752,66, 121993,36, 99632,25, 102765,07, 98484,64, 132916,56, 149239,83, 99509,27, 0,000, 0,000, 0,000, 22:33:28.885
99, 179901,83, 121813,45, 99463,29, 102595,53, 98314,70, 133037,48, 149352,03, 99313,45, 0,000, 0,000, 0,000, 22:33:28.885
100, 179829,41, 121752,65, 99417,78, 102509,21, 98276,62, 133000,59, 149619,84, 99276,61, 0,000, 0,000, 0,000, 22:33:28.885
101, 179642,44, 121963,61, 99631,40, 102678,91, 98495,24, 132855,13, 149672,84, 99517,98, 0,000, 0,000, 0,000, 22:33:28.886
102, 179599,91, 122103,91, 99761,04, 102835,59, 98622,53, 132800,52, 149437,13, 99644,99, 0,000, 0,000, 0,000, 22:33:28.886
103, 179781,58, 122047,54, 99689,36, 102813,41, 98547,01, 132914,05, 149241,83, 99560,10, 0,000, 0,000, 0,000, 22:33:28.886
104, 179929,34, 121834,86, 99475,23, 102617,93, 98331,09, 133038,78, 149352,92, 99336,80, 0,000, 0,000, 0,000, 22:33:28.886
105, 179864,17, 121805,80, 99469,30, 102553,40, 98325,66, 133006,64, 149623,27, 99335,53, 0,000, 0,000, 0,000, 22:33:28.887
106, 179708,27, 122043,56, 99715,76, 102758,88, 98572,93, 132862,72, 149681,77, 99591,46, 0,100, 0,986, 0,078, 22:33:28.887
107, 179679,91, 122203,17, 99863,48, 102932,48, 98720,01, 132807,00, 149449,84, 99750,18, 0,000, 0,000, 0,000, 22:33:28.887
108, 179833,03, 122051,36, 99700,38, 102830,65, 98552,30, 132917,75, 149247,64, 99584,66, 0,000, 0,000, 0,000, 22:33:28.887
109, 179941,84, 121796,87, 99453,32, 102593,14, 98302,43, 133040,63, 149352,92, 99322,59, 0,000, 0,000, 0,000, 22:33:28.888
110, 179829,48, 121710,61, 99382,45, 102471,21, 98233,92, 133008,61, 149622,11, 99243,73, 0,000, 0,000, 0,000, 22:33:28.888
111, 179656,25, 121956,70, 99635,58, 102672,09, 98489,09, 132865,00, 149683,72, 99505,78, 0,000, 0,000, 0,000, 22:33:28.888
112, 179614,66, 122095,77, 99759,95, 102825,71, 98614,48, 132808,83, 149454,52, 99632,90, 0,000, 0,000, 0,000, 22:33:28.889
113, 179748,78, 121961,09, 99606,43, 102729,15, 98458,34, 132918,84, 149252,25, 99469,91, 0,000, 0,000, 0,000, 22:33:28.889
114, 179879,28, 121752,92, 99402,79, 102531,90, 98251,05, 133041,06, 149357,91, 99262,33, 0,000, 0,000, 0,000, 22:33:28.889
115, 179824,06, 121747,80, 99417,18, 102497,30, 98265,53, 133013,81, 149630,23, 99281,48, 0,000, 0,000, 0,000, 22:33:28.890
116, 179654,42, 121971,45, 99650,66, 102691,91, 98500,91, 132869,06, 149690,31, 99527,58, 0,094, 0,986, 0,078, 22:33:28.890
117, 179616,67, 122124,54, 99790,95, 102856,98, 98642,94, 132808,56, 149457,75, 99656,23, 0,000, 0,000, 0,000, 22:33:28.890
118, 179776,70, 122009,27, 99664,68, 102783,84, 98512,27, 132917,19, 149253,08, 99524,00, 0,000, 0,000, 0,000, 22:33:28.890
119, 179897,42, 121749,30, 99412,24, 102541,69, 98256,99, 133040,28, 149353,59, 99276,23, 0,000, 0,000, 0,000, 22:33:28.891
120, 179839,02, 121715,62, 99395,03, 102478,38, 98245,16, 133013,86, 149625,39, 99266,80, 0,000, 0,000, 0,000, 22:33:28.891
121, 179669,00, 121944,81, 99630,87, 102667,64, 98486,43, 132870,25, 149690,44, 99506,70, 0,000, 0,000, 0,000, 22:33:28.891
122, 179634,23, 122122,91, 99792,35, 102853,43, 98646,76, 132808,81, 149461,27, 99665,51, 0,000, 0,000, 0,000, 22:33:28.891
123, 179807,89, 122046,13, 99698,68, 102818,34, 98548,48, 132917,64, 149255,78, 99557,75, 0,000, 0,000, 0,000, 22:33:28.892
124, 179942,63, 121791,45, 99450,66, 102588,09, 98298,92, 133040,33, 149352,81, 99305,89, 0,000, 0,000, 0,000, 22:33:28.892
125, 179862,89, 121721,70, 99393,42, 102484,29, 98252,27, 133011,78, 149623,72, 99260,43, 0,000, 0,000, 0,000, 22:33:28.892
126, 179678,73, 121953,64, 99626,21, 102669,05, 98493,07, 132869,41, 149692,53, 99492,20, 0,096, 0,984, 0,074, 22:33:28.892
127, 179630,41, 122108,52, 99764,41, 102835,14, 98631,27, 132807,98, 149466,02, 99643,25, 0,000, 0,000, 0,000, 22:33:28.893
128, 179798,30, 122027,89, 99671,25, 102791,42, 98532,14, 132916,72, 149261,03, 99550,73, 0,000, 0,000, 0,000, 22:33:28.893
129, 179971,45, 121853,23, 99505,56, 102636,50, 98364,21, 133045,78, 149360,00, 99363,78, 0,000, 0,000, 0,000, 22:33:28.893
130, 179916,66, 121787,74, 99459,00, 102548,03, 98317,56, 133022,17, 149630,75, 99330,30, 0,000, 0,000, 0,000, 22:33:28.894
131, 179742,13, 121994,84, 99676,30, 102715,43, 98534,82, 132877,83, 149702,75, 99570,83, 0,000, 0,000, 0,000, 22:33:28.894
132, 179695,55, 122146,31, 99816,16, 102880,45, 98672,95, 132812,03, 149475,91, 99697,83, 0,000, 0,000, 0,000, 22:33:28.894
133, 179830,33, 122011,82, 99666,25, 102789,70, 98516,18, 132918,53, 149266,02, 99541,50, 0,000, 0,000, 0,000, 22:33:28.894
134, 179961,83, 121781,04, 99436,72, 102572,35, 98284,62, 133046,86, 149361,39, 99303,57, 0,000, 0,000, 0,000, 22:33:28.895
135, 179897,92, 121748,25, 99414,81, 102500,42, 98266,31, 133024,34, 149636,97, 99287,70, 0,000, 0,000, 0,000, 22:33:28.895
136, 179726,66, 121965,06, 99637,79, 102681,48, 98494,34, 132880,84, 149713,23, 99521,23, 0,096, 0,980, 0,074, 22:33:28.895
137, 179676,30, 122114,80, 99777,36, 102844,55, 98634,06, 132815,89, 149488,81, 99653,55, 0,000, 0,000, 0,000, 22:33:28.895
138, 179833,09, 122016,60, 99666,02, 102786,41, 98516,41, 132922,48, 149278,78, 99521,66, 0,000, 0,000, 0,000, 22:33:28.895
139, 179943,78, 121721,63, 99379,49, 102521,50, 98225,05, 133049,42, 149368,30, 99233,77, 0,000, 0,000, 0,000, 22:33:28.896
140, 179845,66, 121642,57, 99320,33, 102410,26, 98170,27, 133026,72, 149637,86, 99192,86, 0,000, 0,000, 0,000, 22:33:28.896
141, 179660,20, 121903,52, 99586,18, 102625,91, 98441,52, 132885,08, 149717,75, 99468,01, 0,000, 0,000, 0,000, 22:33:28.896
142, 179641,08, 122131,45, 99797,54, 102861,96, 98649,73, 132821,50, 149498,31, 99676,73, 0,000, 0,000, 0,000, 22:33:28.896
143, 179797,36, 122037,59, 99690,70, 102809,66, 98536,08, 132929,34, 149287,75, 99564,75, 0,000, 0,000, 0,000, 22:33:28.896
144, 179936,20, 121833,63, 99492,88, 102626,55, 98332,45, 133062,52, 149378,17, 99358,26, 0,000, 0,000, 0,000, 22:33:28.897
145, 179866,67, 121774,80, 99451,76, 102536,97, 98293,89, 133044,91, 149647,67, 99313,55, 0,000, 0,000, 0,000, 22:33:28.897
146, 179684,95, 121973,33, 99657,17, 102698,22, 98507,22, 132901,34, 149726,17, 99512,91, 0,096, 0,976, 0,070, 22:33:28.897
147, 179639,09, 122174,48, 99842,55, 102892,25, 98696,74, 132834,20, 149507,23, 99702,10, 0,000, 0,000, 0,000, 22:33:28.897
148, 179804,63, 122093,90, 99735,45, 102850,16, 98582,81, 132938,45, 149292,23, 99605,16, 0,000, 0,000, 0,000, 22:33:28.898
149, 179897,92, 121786,63, 99436,56, 102575,30, 98281,34, 133064,64, 149374,13, 99309,38, 0,000, 0,000, 0,000, 22:33:28.898
150, 179834,50, 121771,09, 99449,26, 102532,30, 98297,70, 133046,39, 149648,56, 99317,96, 0,000, 0,000, 0,000, 22:33:28.898
151, 179690,66, 122029,57, 99712,42, 102750,50, 98562,79, 132905,69, 149735,06, 99580,62, 0,000, 0,000, 0,000, 22:33:28.898
152, 179687,36, 122258,98, 99930,87, 102985,88, 98777,61, 132844,08, 149518,48, 99796,00, 0,000, 0,000, 0,000, 22:33:28.898
153, 179831,88, 122129,19, 99785,76, 102907,88, 98624,21, 132948,89, 149301,06, 99647,11, 0,000, 0,000, 0,000, 22:33:28.899
154, 179919,94, 121819,48, 99477,82, 102620,23, 98313,97, 133075,53, 149381,16, 99336,55, 0,000, 0,000, 0,000, 22:33:28.899
155, 179823,72, 121725,52, 99406,48, 102495,64, 98245,57, 133053,61, 149650,67, 99263,29, 0,000, 0,000, 0,000, 22:33:28.899
156, 179634,22, 121939,85, 99622,19, 102664,98, 98467,12, 132907,80, 149733,48, 99498,30, 0,096, 0,978, 0,070, 22:33:28.899
157, 179584,39, 122128,95, 99790,27, 102863,62, 98635,30, 132836,92, 149516,61, 99667,45, 0,000, 0,000, 0,000, 22:33:28.899
158, 179702,83, 122011,10, 99661,24, 102793,61, 98502,75, 132937,31, 149299,92, 99533,74, 0,000, 0,000, 0,000, 22:33:28.900
159, 179835,33, 121774,84, 99426,44, 102586,21, 98268,01, 133069,56, 149384,48, 99310,36, 0,000, 0,000, 0,000, 22:33:28.900
160, 179773,13, 121718,45, 99382,02, 102494,91, 98228,34, 133056,95, 149658,17, 99267,63, 0,000, 0,000, 0,000, 22:33:28.900
161, 179602,50, 121948,86, 99620,58, 102680,09, 98469,40, 132915,25, 149746,25, 99501,07, 0,000, 0,000, 0,000, 22:33:28.901
162, 179596,58, 122216,41, 99881,36, 102948,82, 98729,84, 132845,59, 149534,31, 99751,32, 0,000, 0,000, 0,000, 22:33:28.901
163, 179762,94, 122113,25, 99765,64, 102897,44, 98606,91, 132946,30, 149317,09, 99632,36, 0,000, 0,000, 0,000, 22:33:28.901
164, 179877,11, 121799,77, 99451,42, 102605,99, 98289,18, 133073,19, 149389,98, 99309,80, 0,000, 0,000, 0,000, 22:33:28.902
165, 179787,91, 121695,48, 99357,75, 102460,93, 98195,57, 133057,00, 149657,63, 99190,53, 0,000, 0,000, 0,000, 22:33:28.902
166, 179603,66, 121941,13, 99614,97, 102661,58, 98457,33, 132916,70, 149748,23, 99468,19, 0,096, 0,980, 0,072, 22:33:28.902
167, 179569,91, 122164,69, 99832,45, 102898,51, 98674,08, 132845,67, 149536,55, 99701,49, 0,000, 0,000, 0,000, 22:33:28.902
168, 179741,17, 122106,30, 99758,31, 102886,35, 98592,85, 132947,66, 149317,89, 99619,62, 0,000, 0,000, 0,000, 22:33:28.902
169, 179893,83, 121880,59, 99531,55, 102686,37, 98364,46, 133080,42, 149393,00, 99397,24, 0,000, 0,000, 0,000, 22:33:28.903
170, 179841,38, 121794,63, 99457,41, 102578,81, 98295,75, 133069,00, 149663,13, 99325,41, 0,000, 0,000, 0,000, 22:33:28.903
171, 179665,23, 121997,63, 99664,99, 102738,09, 98514,05, 132927,47, 149756,45, 99540,00, 0,000, 0,000, 0,000, 22:33:28.903
172, 179618,91, 122211,35, 99868,69, 102952,04, 98717,28, 132851,86, 149543,47, 99747,88, 0,000, 0,000, 0,000, 22:33:28.903
173, 179767,16, 122115,69, 99762,00, 102905,73, 98600,91, 132950,19, 149321,19, 99640,63, 0,000, 0,000, 0,000, 22:33:28.904
174, 179860,56, 121798,48, 99445,91, 102608,70, 98282,09, 133079,39, 149388,53, 99313,11, 0,000, 0,000, 0,000, 22:33:28.904
175, 179798,50, 121740,83, 99403,44, 102515,04, 98240,97, 133066,44, 149658,25, 99258,20, 0,000, 0,000, 0,000, 22:33:28.904
176, 179599,66, 121894,85, 99572,75, 102633,15, 98410,21, 132922,78, 149752,53, 99415,05, 0,102, 0,978, 0,070, 22:33:28.904
177, 179551,13, 122114,68, 99779,39, 102848,89, 98617,84, 132846,34, 149541,95, 99637,81, 0,000, 0,000, 0,000, 22:33:28.905
178, 179711,14, 122073,91, 99715,58, 102844,20, 98548,26, 132944,30, 149317,00, 99578,27, 0,000, 0,000, 0,000, 22:33:28.905
179, 179865,59, 121856,86, 99500,89, 102656,66, 98328,88, 133077,14, 149385,78, 99358,22, 0,000, 0,000, 0,000, 22:33:28.905
180, 179792,98, 121722,41, 99383,88, 102508,52, 98220,94, 133065,50, 149654,78, 99253,68, 0,000, 0,000, 0,000, 22:33:28.905
181, 179605,42, 121933,23, 99601,52, 102670,86, 98447,27, 132925,11, 149752,39, 99468,92, 0,000, 0,000, 0,000, 22:33:28.905
182, 179562,84, 122158,76, 99816,05, 102897,73, 98661,63, 132849,58, 149543,36, 99677,34, 0,000, 0,000, 0,000, 22:33:28.906
183, 179733,48, 122093,90, 99740,88, 102880,67, 98580,22, 132945,47, 149315,86, 99601,16, 0,000, 0,000, 0,000, 22:33:28.906
184, 179858,73, 121810,03, 99459,85, 102623,52, 98296,13, 133078,22, 149379,55, 99304,13, 0,000, 0,000, 0,000, 22:33:28.906
185, 179776,77, 121705,65, 99368,99, 102487,98, 98208,76, 133068,83, 149648,30, 99237,36, 0,000, 0,000, 0,000, 22:33:28.906
186, 179606,03, 121952,08, 99621,41, 102684,73, 98465,69, 132927,52, 149749,28, 99510,70, 0,098, 0,974, 0,076, 22:33:28.906
187, 179566,52, 122156,10, 99812,80, 102897,55, 98656,84, 132848,02, 149541,13, 99693,63, 0,000, 0,000, 0,000, 22:33:28.907
188, 179715,80, 122084,38, 99729,70, 102868,38, 98567,37, 132940,70, 149310,19, 99604,20, 0,000, 0,000, 0,000, 22:33:28.907
189, 179846,36, 121825,63, 99474,45, 102636,52, 98309,02, 133071,94, 149371,66, 99336,55, 0,000, 0,000, 0,000, 22:33:28.907
190, 179774,88, 121716,64, 99384,28, 102496,49, 98223,04, 133062,97, 149641,45, 99232,60, 0,000, 0,000, 0,000, 22:33:28.907
191, 179620,83, 121974,65, 99651,36, 102704,09, 98491,26, 132924,45, 149746,53, 99505,34, 0,000, 0,000, 0,000, 22:33:28.908
192, 179585,39, 122191,46, 99856,70, 102926,98, 98692,31, 132846,66, 149544,25, 99711,80, 0,000, 0,000, 0,000, 22:33:28.908
